#w_LO= 1.087087
#w_TO= 1.000000
#Phonon content Kim: P#Phonon content Varga: V######################################
#wp	w+	w-	P+	P-	V+	V-	n	wto/meV	wlo/meV
######################################
0.000000	1.087087	0.000000	1.000000	0.000000	1.000000	-nan	0.000000e+00	33.300000	36.200000	
0.010000	1.087094	0.009199	0.999987	0.000013	0.999987	0.000013	5.016472e+13	33.300000	36.200000	
0.020000	1.087115	0.018397	0.999948	0.000052	0.999948	0.000052	2.006589e+14	33.300000	36.200000	
0.030000	1.087151	0.027595	0.999883	0.000117	0.999883	0.000117	4.514825e+14	33.300000	36.200000	
0.040000	1.087200	0.036792	0.999791	0.000209	0.999791	0.000209	8.026356e+14	33.300000	36.200000	
0.050000	1.087264	0.045987	0.999674	0.000326	0.999674	0.000326	1.254118e+15	33.300000	36.200000	
0.060000	1.087342	0.055180	0.999529	0.000471	0.999529	0.000471	1.805930e+15	33.300000	36.200000	
0.070000	1.087435	0.064372	0.999358	0.000642	0.999358	0.000642	2.458071e+15	33.300000	36.200000	
0.080000	1.087542	0.073560	0.999160	0.000840	0.999160	0.000840	3.210542e+15	33.300000	36.200000	
0.090000	1.087663	0.082746	0.998935	0.001065	0.998935	0.001065	4.063343e+15	33.300000	36.200000	
0.100000	1.087799	0.091929	0.998681	0.001319	0.998681	0.001319	5.016472e+15	33.300000	36.200000	
0.110000	1.087950	0.101108	0.998400	0.001600	0.998400	0.001600	6.069932e+15	33.300000	36.200000	
0.120000	1.088116	0.110282	0.998090	0.001910	0.998090	0.001910	7.223720e+15	33.300000	36.200000	
0.130000	1.088297	0.119453	0.997751	0.002249	0.997751	0.002249	8.477838e+15	33.300000	36.200000	
0.140000	1.088492	0.128618	0.997383	0.002617	0.997383	0.002617	9.832286e+15	33.300000	36.200000	
0.150000	1.088704	0.137779	0.996984	0.003016	0.996984	0.003016	1.128706e+16	33.300000	36.200000	
0.160000	1.088930	0.146933	0.996555	0.003445	0.996555	0.003445	1.284217e+16	33.300000	36.200000	
0.170000	1.089173	0.156082	0.996094	0.003906	0.996094	0.003906	1.449760e+16	33.300000	36.200000	
0.180000	1.089431	0.165224	0.995601	0.004399	0.995601	0.004399	1.625337e+16	33.300000	36.200000	
0.190000	1.089705	0.174359	0.995075	0.004925	0.995075	0.004925	1.810947e+16	33.300000	36.200000	
0.200000	1.089996	0.183487	0.994515	0.005485	0.994515	0.005485	2.006589e+16	33.300000	36.200000	
0.210000	1.090303	0.192607	0.993920	0.006080	0.993920	0.006080	2.212264e+16	33.300000	36.200000	
0.220000	1.090627	0.201719	0.993289	0.006711	0.993289	0.006711	2.427973e+16	33.300000	36.200000	
0.230000	1.090969	0.210822	0.992621	0.007379	0.992621	0.007379	2.653714e+16	33.300000	36.200000	
0.240000	1.091327	0.219916	0.991916	0.008084	0.991916	0.008084	2.889488e+16	33.300000	36.200000	
0.250000	1.091704	0.229000	0.991171	0.008829	0.991171	0.008829	3.135295e+16	33.300000	36.200000	
0.260000	1.092099	0.238074	0.990387	0.009613	0.990387	0.009613	3.391135e+16	33.300000	36.200000	
0.270000	1.092512	0.247137	0.989560	0.010440	0.989560	0.010440	3.657008e+16	33.300000	36.200000	
0.280000	1.092944	0.256189	0.988690	0.011310	0.988690	0.011310	3.932914e+16	33.300000	36.200000	
0.290000	1.093395	0.265229	0.987776	0.012224	0.987776	0.012224	4.218853e+16	33.300000	36.200000	
0.300000	1.093865	0.274257	0.986816	0.013184	0.986816	0.013184	4.514825e+16	33.300000	36.200000	
0.310000	1.094356	0.283272	0.985808	0.014192	0.985808	0.014192	4.820830e+16	33.300000	36.200000	
0.320000	1.094868	0.292273	0.984751	0.015249	0.984751	0.015249	5.136868e+16	33.300000	36.200000	
0.330000	1.095400	0.301260	0.983643	0.016357	0.983643	0.016357	5.462938e+16	33.300000	36.200000	
0.340000	1.095954	0.310232	0.982481	0.017519	0.982481	0.017519	5.799042e+16	33.300000	36.200000	
0.350000	1.096529	0.319189	0.981264	0.018736	0.981264	0.018736	6.145179e+16	33.300000	36.200000	
0.360000	1.097128	0.328130	0.979990	0.020010	0.979990	0.020010	6.501348e+16	33.300000	36.200000	
0.370000	1.097749	0.337053	0.978657	0.021343	0.978657	0.021343	6.867551e+16	33.300000	36.200000	
0.380000	1.098394	0.345960	0.977261	0.022739	0.977261	0.022739	7.243786e+16	33.300000	36.200000	
0.390000	1.099064	0.354847	0.975802	0.024198	0.975802	0.024198	7.630054e+16	33.300000	36.200000	
0.400000	1.099759	0.363716	0.974275	0.025725	0.974275	0.025725	8.026356e+16	33.300000	36.200000	
0.410000	1.100479	0.372565	0.972679	0.027321	0.972679	0.027321	8.432690e+16	33.300000	36.200000	
0.420000	1.101225	0.381393	0.971010	0.028990	0.971010	0.028990	8.849057e+16	33.300000	36.200000	
0.430000	1.101999	0.390200	0.969266	0.030734	0.969266	0.030734	9.275457e+16	33.300000	36.200000	
0.440000	1.102801	0.398984	0.967443	0.032557	0.967443	0.032557	9.711890e+16	33.300000	36.200000	
0.450000	1.103632	0.407745	0.965539	0.034461	0.965539	0.034461	1.015836e+17	33.300000	36.200000	
0.460000	1.104492	0.416481	0.963550	0.036450	0.963550	0.036450	1.061486e+17	33.300000	36.200000	
0.470000	1.105382	0.425192	0.961471	0.038529	0.961471	0.038529	1.108139e+17	33.300000	36.200000	
0.480000	1.106304	0.433877	0.959301	0.040699	0.959301	0.040699	1.155795e+17	33.300000	36.200000	
0.490000	1.107259	0.442534	0.957034	0.042966	0.957034	0.042966	1.204455e+17	33.300000	36.200000	
0.500000	1.108246	0.451163	0.954666	0.045334	0.954666	0.045334	1.254118e+17	33.300000	36.200000	
0.510000	1.109269	0.459762	0.952194	0.047806	0.952194	0.047806	1.304784e+17	33.300000	36.200000	
0.520000	1.110326	0.468331	0.949613	0.050387	0.949613	0.050387	1.356454e+17	33.300000	36.200000	
0.530000	1.111421	0.476867	0.946919	0.053081	0.946919	0.053081	1.409127e+17	33.300000	36.200000	
0.540000	1.112553	0.485370	0.944107	0.055893	0.944107	0.055893	1.462803e+17	33.300000	36.200000	
0.550000	1.113724	0.493839	0.941171	0.058829	0.941171	0.058829	1.517483e+17	33.300000	36.200000	
0.560000	1.114936	0.502271	0.938107	0.061893	0.938107	0.061893	1.573166e+17	33.300000	36.200000	
0.570000	1.116189	0.510666	0.934910	0.065090	0.934910	0.065090	1.629852e+17	33.300000	36.200000	
0.580000	1.117486	0.519022	0.931574	0.068426	0.931574	0.068426	1.687541e+17	33.300000	36.200000	
0.590000	1.118826	0.527338	0.928094	0.071906	0.928094	0.071906	1.746234e+17	33.300000	36.200000	
0.600000	1.120213	0.535612	0.924463	0.075537	0.924463	0.075537	1.805930e+17	33.300000	36.200000	
0.610000	1.121648	0.543843	0.920677	0.079323	0.920677	0.079323	1.866629e+17	33.300000	36.200000	
0.620000	1.123131	0.552028	0.916729	0.083271	0.916729	0.083271	1.928332e+17	33.300000	36.200000	
0.630000	1.124665	0.560167	0.912612	0.087388	0.912612	0.087388	1.991038e+17	33.300000	36.200000	
0.640000	1.126252	0.568257	0.908322	0.091678	0.908322	0.091678	2.054747e+17	33.300000	36.200000	
0.650000	1.127892	0.576296	0.903851	0.096149	0.903851	0.096149	2.119460e+17	33.300000	36.200000	
0.660000	1.129589	0.584283	0.899193	0.100807	0.899193	0.100807	2.185175e+17	33.300000	36.200000	
0.670000	1.131344	0.592216	0.894341	0.105659	0.894341	0.105659	2.251894e+17	33.300000	36.200000	
0.680000	1.133158	0.600093	0.889290	0.110710	0.889290	0.110710	2.319617e+17	33.300000	36.200000	
0.690000	1.135034	0.607911	0.884033	0.115967	0.884033	0.115967	2.388342e+17	33.300000	36.200000	
0.700000	1.136974	0.615669	0.878564	0.121436	0.878564	0.121436	2.458071e+17	33.300000	36.200000	
0.710000	1.138980	0.623365	0.872876	0.127124	0.872876	0.127124	2.528804e+17	33.300000	36.200000	
0.720000	1.141053	0.630996	0.866964	0.133036	0.866964	0.133036	2.600539e+17	33.300000	36.200000	
0.730000	1.143197	0.638560	0.860822	0.139178	0.860822	0.139178	2.673278e+17	33.300000	36.200000	
0.740000	1.145413	0.646055	0.854443	0.145557	0.854443	0.145557	2.747020e+17	33.300000	36.200000	
0.750000	1.147704	0.653479	0.847824	0.152176	0.847824	0.152176	2.821766e+17	33.300000	36.200000	
0.760000	1.150071	0.660829	0.840959	0.159041	0.840959	0.159041	2.897514e+17	33.300000	36.200000	
0.770000	1.152518	0.668102	0.833844	0.166156	0.833844	0.166156	2.974266e+17	33.300000	36.200000	
0.780000	1.155046	0.675298	0.826475	0.173525	0.826475	0.173525	3.052022e+17	33.300000	36.200000	
0.790000	1.157658	0.682412	0.818850	0.181150	0.818850	0.181150	3.130780e+17	33.300000	36.200000	
0.800000	1.160356	0.689444	0.810965	0.189035	0.810965	0.189035	3.210542e+17	33.300000	36.200000	
0.810000	1.163142	0.696389	0.802819	0.197181	0.802819	0.197181	3.291307e+17	33.300000	36.200000	
0.820000	1.166020	0.703247	0.794411	0.205589	0.794411	0.205589	3.373076e+17	33.300000	36.200000	
0.830000	1.168990	0.710015	0.785743	0.214257	0.785743	0.214257	3.455848e+17	33.300000	36.200000	
0.840000	1.172056	0.716690	0.776814	0.223186	0.776814	0.223186	3.539623e+17	33.300000	36.200000	
0.850000	1.175219	0.723269	0.767627	0.232373	0.767627	0.232373	3.624401e+17	33.300000	36.200000	
0.860000	1.178482	0.729752	0.758185	0.241815	0.758185	0.241815	3.710183e+17	33.300000	36.200000	
0.870000	1.181847	0.736136	0.748494	0.251506	0.748494	0.251506	3.796968e+17	33.300000	36.200000	
0.880000	1.185316	0.742418	0.738559	0.261441	0.738559	0.261441	3.884756e+17	33.300000	36.200000	
0.890000	1.188891	0.748597	0.728388	0.271612	0.728388	0.271612	3.973548e+17	33.300000	36.200000	
0.900000	1.192573	0.754671	0.717988	0.282012	0.717988	0.282012	4.063343e+17	33.300000	36.200000	
0.910000	1.196365	0.760638	0.707371	0.292629	0.707371	0.292629	4.154141e+17	33.300000	36.200000	
0.920000	1.200268	0.766496	0.696546	0.303454	0.696546	0.303454	4.245942e+17	33.300000	36.200000	
0.930000	1.204283	0.772244	0.685528	0.314472	0.685528	0.314472	4.338747e+17	33.300000	36.200000	
0.940000	1.208413	0.777880	0.674328	0.325672	0.674328	0.325672	4.432555e+17	33.300000	36.200000	
0.950000	1.212657	0.783404	0.662963	0.337037	0.662963	0.337037	4.527366e+17	33.300000	36.200000	
0.960000	1.217017	0.788814	0.651448	0.348552	0.651448	0.348552	4.623181e+17	33.300000	36.200000	
0.970000	1.221495	0.794109	0.639800	0.360200	0.639800	0.360200	4.719999e+17	33.300000	36.200000	
0.980000	1.226089	0.799289	0.628037	0.371963	0.628037	0.371963	4.817820e+17	33.300000	36.200000	
0.990000	1.230802	0.804354	0.616177	0.383823	0.616177	0.383823	4.916645e+17	33.300000	36.200000	
1.000000	1.235633	0.809302	0.604241	0.395759	0.604241	0.395759	5.016472e+17	33.300000	36.200000	
1.010000	1.240582	0.814134	0.592246	0.407754	0.592246	0.407754	5.117303e+17	33.300000	36.200000	
1.020000	1.245650	0.818850	0.580214	0.419786	0.580214	0.419786	5.219138e+17	33.300000	36.200000	
1.030000	1.250835	0.823450	0.568165	0.431835	0.568165	0.431835	5.321975e+17	33.300000	36.200000	
1.040000	1.256138	0.827934	0.556117	0.443883	0.556117	0.443883	5.425816e+17	33.300000	36.200000	
1.050000	1.261558	0.832304	0.544091	0.455909	0.544091	0.455909	5.530661e+17	33.300000	36.200000	
1.060000	1.267093	0.836560	0.532107	0.467893	0.532107	0.467893	5.636508e+17	33.300000	36.200000	
1.070000	1.272743	0.840704	0.520183	0.479817	0.520183	0.479817	5.743359e+17	33.300000	36.200000	
1.080000	1.278507	0.844735	0.508338	0.491662	0.508338	0.491662	5.851213e+17	33.300000	36.200000	
1.090000	1.284384	0.848656	0.496588	0.503412	0.496588	0.503412	5.960071e+17	33.300000	36.200000	
1.100000	1.290371	0.852468	0.484951	0.515049	0.484951	0.515049	6.069932e+17	33.300000	36.200000	
1.110000	1.296467	0.856173	0.473443	0.526557	0.473443	0.526557	6.180796e+17	33.300000	36.200000	
1.120000	1.302670	0.859773	0.462077	0.537923	0.462077	0.537923	6.292663e+17	33.300000	36.200000	
1.130000	1.308979	0.863268	0.450866	0.549134	0.450866	0.549134	6.405534e+17	33.300000	36.200000	
1.140000	1.315392	0.866662	0.439825	0.560175	0.439825	0.560175	6.519407e+17	33.300000	36.200000	
1.150000	1.321906	0.869956	0.428962	0.571038	0.428962	0.571038	6.634285e+17	33.300000	36.200000	
1.160000	1.328519	0.873153	0.418289	0.581711	0.418289	0.581711	6.750165e+17	33.300000	36.200000	
1.170000	1.335229	0.876254	0.407813	0.592187	0.407813	0.592187	6.867049e+17	33.300000	36.200000	
1.180000	1.342034	0.879262	0.397543	0.602457	0.397543	0.602457	6.984936e+17	33.300000	36.200000	
1.190000	1.348932	0.882179	0.387485	0.612515	0.387485	0.612515	7.103826e+17	33.300000	36.200000	
1.200000	1.355920	0.885008	0.377643	0.622357	0.377643	0.622357	7.223720e+17	33.300000	36.200000	
1.210000	1.362996	0.887750	0.368022	0.631978	0.368022	0.631978	7.344617e+17	33.300000	36.200000	
1.220000	1.370157	0.890409	0.358626	0.641374	0.358626	0.641374	7.466517e+17	33.300000	36.200000	
1.230000	1.377401	0.892986	0.349455	0.650545	0.349455	0.650545	7.589421e+17	33.300000	36.200000	
1.240000	1.384726	0.895484	0.340512	0.659488	0.340512	0.659488	7.713328e+17	33.300000	36.200000	
1.250000	1.392130	0.897905	0.331797	0.668203	0.331797	0.668203	7.838238e+17	33.300000	36.200000	
1.260000	1.399609	0.900251	0.323310	0.676690	0.323310	0.676690	7.964151e+17	33.300000	36.200000	
1.270000	1.407162	0.902526	0.315049	0.684951	0.315049	0.684951	8.091068e+17	33.300000	36.200000	
1.280000	1.414787	0.904730	0.307013	0.692987	0.307013	0.692987	8.218988e+17	33.300000	36.200000	
1.290000	1.422481	0.906866	0.299199	0.700801	0.299199	0.700801	8.347912e+17	33.300000	36.200000	
1.300000	1.430242	0.908937	0.291606	0.708394	0.291606	0.708394	8.477838e+17	33.300000	36.200000	
1.310000	1.438067	0.910945	0.284230	0.715770	0.284230	0.715770	8.608768e+17	33.300000	36.200000	
1.320000	1.445956	0.912891	0.277066	0.722934	0.277066	0.722934	8.740701e+17	33.300000	36.200000	
1.330000	1.453905	0.914778	0.270113	0.729887	0.270113	0.729887	8.873638e+17	33.300000	36.200000	
1.340000	1.461913	0.916607	0.263365	0.736635	0.263365	0.736635	9.007578e+17	33.300000	36.200000	
1.350000	1.469978	0.918381	0.256818	0.743182	0.256818	0.743182	9.142521e+17	33.300000	36.200000	
1.360000	1.478097	0.920102	0.250467	0.749533	0.250467	0.749533	9.278467e+17	33.300000	36.200000	
1.370000	1.486269	0.921771	0.244308	0.755692	0.244308	0.755692	9.415417e+17	33.300000	36.200000	
1.380000	1.494493	0.923390	0.238336	0.761664	0.238336	0.761664	9.553370e+17	33.300000	36.200000	
1.390000	1.502766	0.924961	0.232547	0.767453	0.232547	0.767453	9.692326e+17	33.300000	36.200000	
1.400000	1.511087	0.926486	0.226934	0.773066	0.226934	0.773066	9.832286e+17	33.300000	36.200000	
1.410000	1.519453	0.927965	0.221494	0.778506	0.221494	0.778506	9.973249e+17	33.300000	36.200000	
1.420000	1.527865	0.929402	0.216221	0.783779	0.216221	0.783779	1.011521e+18	33.300000	36.200000	
1.430000	1.536319	0.930796	0.211110	0.788890	0.211110	0.788890	1.025818e+18	33.300000	36.200000	
1.440000	1.544815	0.932150	0.206157	0.793843	0.206157	0.793843	1.040216e+18	33.300000	36.200000	
1.450000	1.553351	0.933466	0.201357	0.798643	0.201357	0.798643	1.054713e+18	33.300000	36.200000	
1.460000	1.561926	0.934743	0.196704	0.803296	0.196704	0.803296	1.069311e+18	33.300000	36.200000	
1.470000	1.570538	0.935985	0.192195	0.807805	0.192195	0.807805	1.084010e+18	33.300000	36.200000	
1.480000	1.579187	0.937191	0.187824	0.812176	0.187824	0.812176	1.098808e+18	33.300000	36.200000	
1.490000	1.587870	0.938364	0.183588	0.816412	0.183588	0.816412	1.113707e+18	33.300000	36.200000	
1.500000	1.596587	0.939504	0.179481	0.820519	0.179481	0.820519	1.128706e+18	33.300000	36.200000	
1.510000	1.605337	0.940613	0.175499	0.824501	0.175499	0.824501	1.143806e+18	33.300000	36.200000	
1.520000	1.614118	0.941691	0.171638	0.828362	0.171638	0.828362	1.159006e+18	33.300000	36.200000	
1.530000	1.622930	0.942740	0.167895	0.832105	0.167895	0.832105	1.174306e+18	33.300000	36.200000	
1.540000	1.631771	0.943760	0.164264	0.835736	0.164264	0.835736	1.189707e+18	33.300000	36.200000	
1.550000	1.640640	0.944753	0.160743	0.839257	0.160743	0.839257	1.205207e+18	33.300000	36.200000	
1.560000	1.649537	0.945720	0.157327	0.842673	0.157327	0.842673	1.220809e+18	33.300000	36.200000	
1.570000	1.658460	0.946661	0.154014	0.845986	0.154014	0.845986	1.236510e+18	33.300000	36.200000	
1.580000	1.667410	0.947578	0.150798	0.849202	0.150798	0.849202	1.252312e+18	33.300000	36.200000	
1.590000	1.676384	0.948470	0.147678	0.852322	0.147678	0.852322	1.268214e+18	33.300000	36.200000	
1.600000	1.685382	0.949340	0.144649	0.855351	0.144649	0.855351	1.284217e+18	33.300000	36.200000	
1.610000	1.694403	0.950187	0.141708	0.858292	0.141708	0.858292	1.300320e+18	33.300000	36.200000	
1.620000	1.703448	0.951013	0.138854	0.861146	0.138854	0.861146	1.316523e+18	33.300000	36.200000	
1.630000	1.712513	0.951817	0.136081	0.863919	0.136081	0.863919	1.332827e+18	33.300000	36.200000	
1.640000	1.721600	0.952602	0.133388	0.866612	0.133388	0.866612	1.349230e+18	33.300000	36.200000	
1.650000	1.730708	0.953367	0.130773	0.869227	0.130773	0.869227	1.365735e+18	33.300000	36.200000	
1.660000	1.739835	0.954113	0.128231	0.871769	0.128231	0.871769	1.382339e+18	33.300000	36.200000	
1.670000	1.748981	0.954841	0.125761	0.874239	0.125761	0.874239	1.399044e+18	33.300000	36.200000	
1.680000	1.758147	0.955552	0.123360	0.876640	0.123360	0.876640	1.415849e+18	33.300000	36.200000	
1.690000	1.767330	0.956245	0.121027	0.878973	0.121027	0.878973	1.432755e+18	33.300000	36.200000	
1.700000	1.776530	0.956922	0.118757	0.881243	0.118757	0.881243	1.449760e+18	33.300000	36.200000	
1.710000	1.785748	0.957582	0.116551	0.883449	0.116551	0.883449	1.466867e+18	33.300000	36.200000	
1.720000	1.794982	0.958227	0.114404	0.885596	0.114404	0.885596	1.484073e+18	33.300000	36.200000	
1.730000	1.804232	0.958857	0.112316	0.887684	0.112316	0.887684	1.501380e+18	33.300000	36.200000	
1.740000	1.813497	0.959472	0.110283	0.889717	0.110283	0.889717	1.518787e+18	33.300000	36.200000	
1.750000	1.822777	0.960073	0.108306	0.891694	0.108306	0.891694	1.536295e+18	33.300000	36.200000	
1.760000	1.832072	0.960661	0.106380	0.893620	0.106380	0.893620	1.553902e+18	33.300000	36.200000	
1.770000	1.841382	0.961235	0.104506	0.895494	0.104506	0.895494	1.571611e+18	33.300000	36.200000	
1.780000	1.850704	0.961796	0.102680	0.897320	0.102680	0.897320	1.589419e+18	33.300000	36.200000	
1.790000	1.860041	0.962345	0.100903	0.899097	0.100903	0.899097	1.607328e+18	33.300000	36.200000	
1.800000	1.869390	0.962881	0.099171	0.900829	0.099171	0.900829	1.625337e+18	33.300000	36.200000	
1.810000	1.878752	0.963406	0.097483	0.902517	0.097483	0.902517	1.643446e+18	33.300000	36.200000	
1.820000	1.888126	0.963919	0.095839	0.904161	0.095839	0.904161	1.661656e+18	33.300000	36.200000	
1.830000	1.897512	0.964421	0.094236	0.905764	0.094236	0.905764	1.679966e+18	33.300000	36.200000	
1.840000	1.906909	0.964912	0.092673	0.907327	0.092673	0.907327	1.698377e+18	33.300000	36.200000	
1.850000	1.916318	0.965393	0.091149	0.908851	0.091149	0.908851	1.716888e+18	33.300000	36.200000	
1.860000	1.925738	0.965864	0.089663	0.910337	0.089663	0.910337	1.735499e+18	33.300000	36.200000	
1.870000	1.935168	0.966324	0.088213	0.911787	0.088213	0.911787	1.754210e+18	33.300000	36.200000	
1.880000	1.944609	0.966775	0.086799	0.913201	0.086799	0.913201	1.773022e+18	33.300000	36.200000	
1.890000	1.954060	0.967217	0.085419	0.914581	0.085419	0.914581	1.791934e+18	33.300000	36.200000	
1.900000	1.963520	0.967650	0.084072	0.915928	0.084072	0.915928	1.810947e+18	33.300000	36.200000	
1.910000	1.972991	0.968074	0.082758	0.917242	0.082758	0.917242	1.830059e+18	33.300000	36.200000	
1.920000	1.982470	0.968489	0.081474	0.918526	0.081474	0.918526	1.849272e+18	33.300000	36.200000	
1.930000	1.991959	0.968896	0.080221	0.919779	0.080221	0.919779	1.868586e+18	33.300000	36.200000	
1.940000	2.001456	0.969294	0.078997	0.921003	0.078997	0.921003	1.888000e+18	33.300000	36.200000	
1.950000	2.010962	0.969685	0.077801	0.922199	0.077801	0.922199	1.907514e+18	33.300000	36.200000	
1.960000	2.020477	0.970068	0.076633	0.923367	0.076633	0.923367	1.927128e+18	33.300000	36.200000	
1.970000	2.029999	0.970444	0.075491	0.924509	0.075491	0.924509	1.946843e+18	33.300000	36.200000	
1.980000	2.039530	0.970812	0.074376	0.925624	0.074376	0.925624	1.966658e+18	33.300000	36.200000	
1.990000	2.049068	0.971173	0.073285	0.926715	0.073285	0.926715	1.986573e+18	33.300000	36.200000	
2.000000	2.058614	0.971527	0.072220	0.927780	0.072220	0.927780	2.006589e+18	33.300000	36.200000	
2.010000	2.068168	0.971875	0.071177	0.928823	0.071177	0.928823	2.026705e+18	33.300000	36.200000	
2.020000	2.077728	0.972216	0.070158	0.929842	0.070158	0.929842	2.046921e+18	33.300000	36.200000	
2.030000	2.087296	0.972550	0.069161	0.930839	0.069161	0.930839	2.067238e+18	33.300000	36.200000	
2.040000	2.096871	0.972878	0.068186	0.931814	0.068186	0.931814	2.087655e+18	33.300000	36.200000	
2.050000	2.106452	0.973201	0.067231	0.932769	0.067231	0.932769	2.108172e+18	33.300000	36.200000	
2.060000	2.116040	0.973517	0.066298	0.933702	0.066298	0.933702	2.128790e+18	33.300000	36.200000	
2.070000	2.125634	0.973827	0.065384	0.934616	0.065384	0.934616	2.149508e+18	33.300000	36.200000	
2.080000	2.135234	0.974132	0.064489	0.935511	0.064489	0.935511	2.170327e+18	33.300000	36.200000	
2.090000	2.144841	0.974431	0.063614	0.936386	0.063614	0.936386	2.191245e+18	33.300000	36.200000	
2.100000	2.154453	0.974725	0.062756	0.937244	0.062756	0.937244	2.212264e+18	33.300000	36.200000	
2.110000	2.164072	0.975014	0.061916	0.938084	0.061916	0.938084	2.233384e+18	33.300000	36.200000	
2.120000	2.173696	0.975297	0.061094	0.938906	0.061094	0.938906	2.254603e+18	33.300000	36.200000	
2.130000	2.183325	0.975576	0.060288	0.939712	0.060288	0.939712	2.275923e+18	33.300000	36.200000	
2.140000	2.192960	0.975850	0.059499	0.940501	0.059499	0.940501	2.297344e+18	33.300000	36.200000	
2.150000	2.202601	0.976119	0.058726	0.941274	0.058726	0.941274	2.318864e+18	33.300000	36.200000	
2.160000	2.212246	0.976383	0.057968	0.942032	0.057968	0.942032	2.340485e+18	33.300000	36.200000	
2.170000	2.221897	0.976643	0.057225	0.942775	0.057225	0.942775	2.362207e+18	33.300000	36.200000	
2.180000	2.231553	0.976898	0.056497	0.943503	0.056497	0.943503	2.384028e+18	33.300000	36.200000	
2.190000	2.241213	0.977149	0.055783	0.944217	0.055783	0.944217	2.405950e+18	33.300000	36.200000	
2.200000	2.250879	0.977396	0.055083	0.944917	0.055083	0.944917	2.427973e+18	33.300000	36.200000	
2.210000	2.260549	0.977639	0.054397	0.945603	0.054397	0.945603	2.450095e+18	33.300000	36.200000	
2.220000	2.270223	0.977877	0.053724	0.946276	0.053724	0.946276	2.472318e+18	33.300000	36.200000	
2.230000	2.279902	0.978112	0.053063	0.946937	0.053063	0.946937	2.494642e+18	33.300000	36.200000	
2.240000	2.289586	0.978343	0.052416	0.947584	0.052416	0.947584	2.517065e+18	33.300000	36.200000	
2.250000	2.299274	0.978570	0.051780	0.948220	0.051780	0.948220	2.539589e+18	33.300000	36.200000	
2.260000	2.308966	0.978793	0.051157	0.948843	0.051157	0.948843	2.562213e+18	33.300000	36.200000	
2.270000	2.318662	0.979013	0.050545	0.949455	0.050545	0.949455	2.584938e+18	33.300000	36.200000	
2.280000	2.328362	0.979229	0.049944	0.950056	0.049944	0.950056	2.607763e+18	33.300000	36.200000	
2.290000	2.338066	0.979442	0.049354	0.950646	0.049354	0.950646	2.630688e+18	33.300000	36.200000	
2.300000	2.347774	0.979651	0.048775	0.951225	0.048775	0.951225	2.653714e+18	33.300000	36.200000	
2.310000	2.357485	0.979858	0.048207	0.951793	0.048207	0.951793	2.676840e+18	33.300000	36.200000	
2.320000	2.367201	0.980060	0.047649	0.952351	0.047649	0.952351	2.700066e+18	33.300000	36.200000	
2.330000	2.376920	0.980260	0.047101	0.952899	0.047101	0.952899	2.723393e+18	33.300000	36.200000	
2.340000	2.386643	0.980457	0.046563	0.953437	0.046563	0.953437	2.746820e+18	33.300000	36.200000	
2.350000	2.396369	0.980650	0.046034	0.953966	0.046034	0.953966	2.770347e+18	33.300000	36.200000	
2.360000	2.406098	0.980841	0.045514	0.954486	0.045514	0.954486	2.793974e+18	33.300000	36.200000	
2.370000	2.415831	0.981029	0.045004	0.954996	0.045004	0.954996	2.817702e+18	33.300000	36.200000	
2.380000	2.425568	0.981214	0.044502	0.955498	0.044502	0.955498	2.841531e+18	33.300000	36.200000	
2.390000	2.435307	0.981396	0.044009	0.955991	0.044009	0.955991	2.865459e+18	33.300000	36.200000	
2.400000	2.445050	0.981575	0.043525	0.956475	0.043525	0.956475	2.889488e+18	33.300000	36.200000	
2.410000	2.454796	0.981752	0.043049	0.956951	0.043049	0.956951	2.913617e+18	33.300000	36.200000	
2.420000	2.464545	0.981926	0.042581	0.957419	0.042581	0.957419	2.937847e+18	33.300000	36.200000	
2.430000	2.474296	0.982097	0.042121	0.957879	0.042121	0.957879	2.962177e+18	33.300000	36.200000	
2.440000	2.484051	0.982266	0.041668	0.958332	0.041668	0.958332	2.986607e+18	33.300000	36.200000	
2.450000	2.493809	0.982433	0.041223	0.958777	0.041223	0.958777	3.011138e+18	33.300000	36.200000	
2.460000	2.503570	0.982597	0.040786	0.959214	0.040786	0.959214	3.035768e+18	33.300000	36.200000	
2.470000	2.513333	0.982759	0.040356	0.959644	0.040356	0.959644	3.060500e+18	33.300000	36.200000	
2.480000	2.523099	0.982918	0.039932	0.960068	0.039932	0.960068	3.085331e+18	33.300000	36.200000	
2.490000	2.532868	0.983075	0.039516	0.960484	0.039516	0.960484	3.110263e+18	33.300000	36.200000	
2.500000	2.542640	0.983230	0.039106	0.960894	0.039106	0.960894	3.135295e+18	33.300000	36.200000	
2.510000	2.552414	0.983383	0.038703	0.961297	0.038703	0.961297	3.160428e+18	33.300000	36.200000	
2.520000	2.562191	0.983533	0.038307	0.961693	0.038307	0.961693	3.185661e+18	33.300000	36.200000	
2.530000	2.571970	0.983682	0.037916	0.962084	0.037916	0.962084	3.210994e+18	33.300000	36.200000	
2.540000	2.581751	0.983828	0.037532	0.962468	0.037532	0.962468	3.236427e+18	33.300000	36.200000	
2.550000	2.591535	0.983973	0.037154	0.962846	0.037154	0.962846	3.261961e+18	33.300000	36.200000	
2.560000	2.601322	0.984115	0.036782	0.963218	0.036782	0.963218	3.287595e+18	33.300000	36.200000	
2.570000	2.611111	0.984255	0.036416	0.963584	0.036416	0.963584	3.313330e+18	33.300000	36.200000	
2.580000	2.620902	0.984394	0.036055	0.963945	0.036055	0.963945	3.339165e+18	33.300000	36.200000	
2.590000	2.630695	0.984531	0.035700	0.964300	0.035700	0.964300	3.365100e+18	33.300000	36.200000	
2.600000	2.640491	0.984665	0.035350	0.964650	0.035350	0.964650	3.391135e+18	33.300000	36.200000	
2.610000	2.650289	0.984798	0.035006	0.964994	0.035006	0.964994	3.417271e+18	33.300000	36.200000	
2.620000	2.660089	0.984930	0.034666	0.965334	0.034666	0.965334	3.443507e+18	33.300000	36.200000	
2.630000	2.669891	0.985059	0.034332	0.965668	0.034332	0.965668	3.469844e+18	33.300000	36.200000	
2.640000	2.679695	0.985187	0.034003	0.965997	0.034003	0.965997	3.496281e+18	33.300000	36.200000	
2.650000	2.689501	0.985313	0.033679	0.966321	0.033679	0.966321	3.522818e+18	33.300000	36.200000	
2.660000	2.699310	0.985437	0.033360	0.966640	0.033360	0.966640	3.549455e+18	33.300000	36.200000	
2.670000	2.709120	0.985560	0.033045	0.966955	0.033045	0.966955	3.576193e+18	33.300000	36.200000	
2.680000	2.718932	0.985681	0.032735	0.967265	0.032735	0.967265	3.603031e+18	33.300000	36.200000	
2.690000	2.728746	0.985801	0.032429	0.967571	0.032429	0.967571	3.629970e+18	33.300000	36.200000	
2.700000	2.738562	0.985919	0.032128	0.967872	0.032128	0.967872	3.657008e+18	33.300000	36.200000	
2.710000	2.748380	0.986035	0.031831	0.968169	0.031831	0.968169	3.684147e+18	33.300000	36.200000	
2.720000	2.758200	0.986150	0.031539	0.968461	0.031539	0.968461	3.711387e+18	33.300000	36.200000	
2.730000	2.768021	0.986264	0.031250	0.968750	0.031250	0.968750	3.738727e+18	33.300000	36.200000	
2.740000	2.777845	0.986376	0.030966	0.969034	0.030966	0.969034	3.766167e+18	33.300000	36.200000	
2.750000	2.787670	0.986487	0.030686	0.969314	0.030686	0.969314	3.793707e+18	33.300000	36.200000	
2.760000	2.797496	0.986596	0.030410	0.969590	0.030410	0.969590	3.821348e+18	33.300000	36.200000	
2.770000	2.807325	0.986704	0.030137	0.969863	0.030137	0.969863	3.849089e+18	33.300000	36.200000	
2.780000	2.817155	0.986811	0.029869	0.970131	0.029869	0.970131	3.876930e+18	33.300000	36.200000	
2.790000	2.826987	0.986917	0.029604	0.970396	0.029604	0.970396	3.904872e+18	33.300000	36.200000	
2.800000	2.836820	0.987021	0.029342	0.970658	0.029342	0.970658	3.932914e+18	33.300000	36.200000	
2.810000	2.846655	0.987123	0.029085	0.970915	0.029085	0.970915	3.961057e+18	33.300000	36.200000	
2.820000	2.856492	0.987225	0.028831	0.971169	0.028831	0.971169	3.989299e+18	33.300000	36.200000	
2.830000	2.866330	0.987325	0.028580	0.971420	0.028580	0.971420	4.017643e+18	33.300000	36.200000	
2.840000	2.876170	0.987424	0.028332	0.971668	0.028332	0.971668	4.046086e+18	33.300000	36.200000	
2.850000	2.886011	0.987522	0.028088	0.971912	0.028088	0.971912	4.074630e+18	33.300000	36.200000	
2.860000	2.895853	0.987619	0.027848	0.972152	0.027848	0.972152	4.103274e+18	33.300000	36.200000	
2.870000	2.905698	0.987715	0.027610	0.972390	0.027610	0.972390	4.132018e+18	33.300000	36.200000	
2.880000	2.915543	0.987809	0.027376	0.972624	0.027376	0.972624	4.160863e+18	33.300000	36.200000	
2.890000	2.925390	0.987902	0.027144	0.972856	0.027144	0.972856	4.189808e+18	33.300000	36.200000	
2.900000	2.935238	0.987995	0.026916	0.973084	0.026916	0.973084	4.218853e+18	33.300000	36.200000	
2.910000	2.945088	0.988086	0.026691	0.973309	0.026691	0.973309	4.247999e+18	33.300000	36.200000	
2.920000	2.954939	0.988176	0.026468	0.973532	0.026468	0.973532	4.277245e+18	33.300000	36.200000	
2.930000	2.964792	0.988265	0.026249	0.973751	0.026249	0.973751	4.306591e+18	33.300000	36.200000	
2.940000	2.974646	0.988353	0.026032	0.973968	0.026032	0.973968	4.336038e+18	33.300000	36.200000	
2.950000	2.984501	0.988440	0.025818	0.974182	0.025818	0.974182	4.365585e+18	33.300000	36.200000	
2.960000	2.994357	0.988526	0.025607	0.974393	0.025607	0.974393	4.395232e+18	33.300000	36.200000	
2.970000	3.004215	0.988611	0.025399	0.974601	0.025399	0.974601	4.424980e+18	33.300000	36.200000	
2.980000	3.014074	0.988695	0.025193	0.974807	0.025193	0.974807	4.454828e+18	33.300000	36.200000	
2.990000	3.023934	0.988778	0.024989	0.975011	0.024989	0.975011	4.484776e+18	33.300000	36.200000	
3.000000	3.033795	0.988860	0.024789	0.975211	0.024789	0.975211	4.514825e+18	33.300000	36.200000	
3.010000	3.043658	0.988942	0.024590	0.975410	0.024590	0.975410	4.544974e+18	33.300000	36.200000	
3.020000	3.053522	0.989022	0.024395	0.975605	0.024395	0.975605	4.575223e+18	33.300000	36.200000	
3.030000	3.063386	0.989101	0.024201	0.975799	0.024201	0.975799	4.605573e+18	33.300000	36.200000	
3.040000	3.073253	0.989180	0.024010	0.975990	0.024010	0.975990	4.636023e+18	33.300000	36.200000	
3.050000	3.083120	0.989258	0.023822	0.976178	0.023822	0.976178	4.666573e+18	33.300000	36.200000	
3.060000	3.092988	0.989335	0.023635	0.976365	0.023635	0.976365	4.697224e+18	33.300000	36.200000	
3.070000	3.102858	0.989411	0.023451	0.976549	0.023451	0.976549	4.727975e+18	33.300000	36.200000	
3.080000	3.112728	0.989486	0.023269	0.976731	0.023269	0.976731	4.758826e+18	33.300000	36.200000	
3.090000	3.122600	0.989560	0.023090	0.976910	0.023090	0.976910	4.789778e+18	33.300000	36.200000	
3.100000	3.132472	0.989634	0.022912	0.977088	0.022912	0.977088	4.820830e+18	33.300000	36.200000	
3.110000	3.142346	0.989706	0.022737	0.977263	0.022737	0.977263	4.851982e+18	33.300000	36.200000	
3.120000	3.152221	0.989778	0.022563	0.977437	0.022563	0.977437	4.883235e+18	33.300000	36.200000	
3.130000	3.162097	0.989850	0.022392	0.977608	0.022392	0.977608	4.914588e+18	33.300000	36.200000	
3.140000	3.171974	0.989920	0.022223	0.977777	0.022223	0.977777	4.946041e+18	33.300000	36.200000	
3.150000	3.181851	0.989990	0.022056	0.977944	0.022056	0.977944	4.977595e+18	33.300000	36.200000	
3.160000	3.191730	0.990059	0.021890	0.978110	0.021890	0.978110	5.009249e+18	33.300000	36.200000	
3.170000	3.201610	0.990127	0.021727	0.978273	0.021727	0.978273	5.041003e+18	33.300000	36.200000	
3.180000	3.211491	0.990194	0.021565	0.978435	0.021565	0.978435	5.072857e+18	33.300000	36.200000	
3.190000	3.221373	0.990261	0.021406	0.978594	0.021406	0.978594	5.104812e+18	33.300000	36.200000	
3.200000	3.231255	0.990327	0.021248	0.978752	0.021248	0.978752	5.136868e+18	33.300000	36.200000	
3.210000	3.241139	0.990393	0.021092	0.978908	0.021092	0.978908	5.169023e+18	33.300000	36.200000	
3.220000	3.251023	0.990457	0.020938	0.979062	0.020938	0.979062	5.201279e+18	33.300000	36.200000	
3.230000	3.260909	0.990521	0.020785	0.979215	0.020785	0.979215	5.233635e+18	33.300000	36.200000	
3.240000	3.270795	0.990585	0.020634	0.979366	0.020634	0.979366	5.266092e+18	33.300000	36.200000	
3.250000	3.280682	0.990648	0.020485	0.979515	0.020485	0.979515	5.298649e+18	33.300000	36.200000	
3.260000	3.290570	0.990710	0.020338	0.979662	0.020338	0.979662	5.331306e+18	33.300000	36.200000	
3.270000	3.300459	0.990771	0.020192	0.979808	0.020192	0.979808	5.364064e+18	33.300000	36.200000	
3.280000	3.310349	0.990832	0.020048	0.979952	0.020048	0.979952	5.396922e+18	33.300000	36.200000	
3.290000	3.320240	0.990892	0.019905	0.980095	0.019905	0.980095	5.429880e+18	33.300000	36.200000	
3.300000	3.330131	0.990952	0.019764	0.980236	0.019764	0.980236	5.462938e+18	33.300000	36.200000	
3.310000	3.340023	0.991011	0.019625	0.980375	0.019625	0.980375	5.496097e+18	33.300000	36.200000	
3.320000	3.349916	0.991070	0.019487	0.980513	0.019487	0.980513	5.529356e+18	33.300000	36.200000	
3.330000	3.359810	0.991127	0.019350	0.980650	0.019350	0.980650	5.562716e+18	33.300000	36.200000	
3.340000	3.369705	0.991185	0.019215	0.980785	0.019215	0.980785	5.596176e+18	33.300000	36.200000	
3.350000	3.379600	0.991241	0.019082	0.980918	0.019082	0.980918	5.629736e+18	33.300000	36.200000	
3.360000	3.389497	0.991298	0.018950	0.981050	0.018950	0.981050	5.663397e+18	33.300000	36.200000	
3.370000	3.399394	0.991353	0.018819	0.981181	0.018819	0.981181	5.697157e+18	33.300000	36.200000	
3.380000	3.409291	0.991408	0.018690	0.981310	0.018690	0.981310	5.731019e+18	33.300000	36.200000	
3.390000	3.419190	0.991463	0.018562	0.981438	0.018562	0.981438	5.764980e+18	33.300000	36.200000	
3.400000	3.429089	0.991517	0.018435	0.981565	0.018435	0.981565	5.799042e+18	33.300000	36.200000	
3.410000	3.438989	0.991570	0.018310	0.981690	0.018310	0.981690	5.833204e+18	33.300000	36.200000	
3.420000	3.448890	0.991623	0.018186	0.981814	0.018186	0.981814	5.867467e+18	33.300000	36.200000	
3.430000	3.458791	0.991676	0.018064	0.981936	0.018064	0.981936	5.901830e+18	33.300000	36.200000	
3.440000	3.468693	0.991728	0.017942	0.982058	0.017942	0.982058	5.936293e+18	33.300000	36.200000	
3.450000	3.478596	0.991779	0.017822	0.982178	0.017822	0.982178	5.970856e+18	33.300000	36.200000	
3.460000	3.488500	0.991830	0.017704	0.982296	0.017704	0.982296	6.005520e+18	33.300000	36.200000	
3.470000	3.498404	0.991881	0.017586	0.982414	0.017586	0.982414	6.040284e+18	33.300000	36.200000	
3.480000	3.508309	0.991931	0.017470	0.982530	0.017470	0.982530	6.075149e+18	33.300000	36.200000	
3.490000	3.518214	0.991980	0.017354	0.982646	0.017354	0.982646	6.110113e+18	33.300000	36.200000	
3.500000	3.528121	0.992030	0.017240	0.982760	0.017240	0.982760	6.145179e+18	33.300000	36.200000	
3.510000	3.538028	0.992078	0.017128	0.982872	0.017128	0.982872	6.180344e+18	33.300000	36.200000	
3.520000	3.547935	0.992126	0.017016	0.982984	0.017016	0.982984	6.215610e+18	33.300000	36.200000	
3.530000	3.557843	0.992174	0.016905	0.983095	0.016905	0.983095	6.250976e+18	33.300000	36.200000	
3.540000	3.567752	0.992221	0.016796	0.983204	0.016796	0.983204	6.286442e+18	33.300000	36.200000	
3.550000	3.577662	0.992268	0.016687	0.983313	0.016687	0.983313	6.322009e+18	33.300000	36.200000	
3.560000	3.587572	0.992315	0.016580	0.983420	0.016580	0.983420	6.357676e+18	33.300000	36.200000	
3.570000	3.597482	0.992361	0.016474	0.983526	0.016474	0.983526	6.393444e+18	33.300000	36.200000	
3.580000	3.607394	0.992406	0.016369	0.983631	0.016369	0.983631	6.429312e+18	33.300000	36.200000	
3.590000	3.617305	0.992451	0.016264	0.983736	0.016264	0.983736	6.465280e+18	33.300000	36.200000	
3.600000	3.627218	0.992496	0.016161	0.983839	0.016161	0.983839	6.501348e+18	33.300000	36.200000	
3.610000	3.637131	0.992541	0.016059	0.983941	0.016059	0.983941	6.537517e+18	33.300000	36.200000	
3.620000	3.647045	0.992585	0.015958	0.984042	0.015958	0.984042	6.573786e+18	33.300000	36.200000	
3.630000	3.656959	0.992628	0.015858	0.984142	0.015858	0.984142	6.610155e+18	33.300000	36.200000	
3.640000	3.666874	0.992671	0.015759	0.984241	0.015759	0.984241	6.646625e+18	33.300000	36.200000	
3.650000	3.676789	0.992714	0.015660	0.984340	0.015660	0.984340	6.683195e+18	33.300000	36.200000	
3.660000	3.686705	0.992756	0.015563	0.984437	0.015563	0.984437	6.719866e+18	33.300000	36.200000	
3.670000	3.696621	0.992798	0.015467	0.984533	0.015467	0.984533	6.756636e+18	33.300000	36.200000	
3.680000	3.706538	0.992840	0.015371	0.984629	0.015371	0.984629	6.793507e+18	33.300000	36.200000	
3.690000	3.716456	0.992881	0.015277	0.984723	0.015277	0.984723	6.830479e+18	33.300000	36.200000	
3.700000	3.726374	0.992922	0.015183	0.984817	0.015183	0.984817	6.867551e+18	33.300000	36.200000	
3.710000	3.736293	0.992963	0.015091	0.984909	0.015091	0.984909	6.904723e+18	33.300000	36.200000	
3.720000	3.746212	0.993003	0.014999	0.985001	0.014999	0.985001	6.941995e+18	33.300000	36.200000	
3.730000	3.756132	0.993043	0.014908	0.985092	0.014908	0.985092	6.979368e+18	33.300000	36.200000	
3.740000	3.766052	0.993082	0.014817	0.985183	0.014817	0.985183	7.016841e+18	33.300000	36.200000	
3.750000	3.775972	0.993122	0.014728	0.985272	0.014728	0.985272	7.054414e+18	33.300000	36.200000	
3.760000	3.785894	0.993160	0.014640	0.985360	0.014640	0.985360	7.092088e+18	33.300000	36.200000	
3.770000	3.795815	0.993199	0.014552	0.985448	0.014552	0.985448	7.129862e+18	33.300000	36.200000	
3.780000	3.805738	0.993237	0.014465	0.985535	0.014465	0.985535	7.167736e+18	33.300000	36.200000	
3.790000	3.815660	0.993275	0.014379	0.985621	0.014379	0.985621	7.205711e+18	33.300000	36.200000	
3.800000	3.825583	0.993313	0.014294	0.985706	0.014294	0.985706	7.243786e+18	33.300000	36.200000	
3.810000	3.835507	0.993350	0.014209	0.985791	0.014209	0.985791	7.281961e+18	33.300000	36.200000	
3.820000	3.845431	0.993387	0.014126	0.985874	0.014126	0.985874	7.320237e+18	33.300000	36.200000	
3.830000	3.855356	0.993423	0.014043	0.985957	0.014043	0.985957	7.358613e+18	33.300000	36.200000	
3.840000	3.865281	0.993459	0.013960	0.986040	0.013960	0.986040	7.397089e+18	33.300000	36.200000	
3.850000	3.875206	0.993495	0.013879	0.986121	0.013879	0.986121	7.435666e+18	33.300000	36.200000	
3.860000	3.885132	0.993531	0.013798	0.986202	0.013798	0.986202	7.474343e+18	33.300000	36.200000	
3.870000	3.895059	0.993566	0.013718	0.986282	0.013718	0.986282	7.513120e+18	33.300000	36.200000	
3.880000	3.904986	0.993602	0.013639	0.986361	0.013639	0.986361	7.551998e+18	33.300000	36.200000	
3.890000	3.914913	0.993636	0.013560	0.986440	0.013560	0.986440	7.590976e+18	33.300000	36.200000	
3.900000	3.924841	0.993671	0.013482	0.986518	0.013482	0.986518	7.630054e+18	33.300000	36.200000	
3.910000	3.934769	0.993705	0.013405	0.986595	0.013405	0.986595	7.669233e+18	33.300000	36.200000	
3.920000	3.944698	0.993739	0.013329	0.986671	0.013329	0.986671	7.708512e+18	33.300000	36.200000	
3.930000	3.954627	0.993773	0.013253	0.986747	0.013253	0.986747	7.747891e+18	33.300000	36.200000	
3.940000	3.964556	0.993806	0.013178	0.986822	0.013178	0.986822	7.787371e+18	33.300000	36.200000	
3.950000	3.974486	0.993839	0.013103	0.986897	0.013103	0.986897	7.826951e+18	33.300000	36.200000	
3.960000	3.984417	0.993872	0.013029	0.986971	0.013029	0.986971	7.866631e+18	33.300000	36.200000	
3.970000	3.994348	0.993905	0.012956	0.987044	0.012956	0.987044	7.906412e+18	33.300000	36.200000	
3.980000	4.004279	0.993937	0.012883	0.987117	0.012883	0.987117	7.946293e+18	33.300000	36.200000	
3.990000	4.014210	0.993969	0.012811	0.987189	0.012811	0.987189	7.986274e+18	33.300000	36.200000	
4.000000	4.024142	0.994001	0.012740	0.987260	0.012740	0.987260	8.026356e+18	33.300000	36.200000	
4.010000	4.034075	0.994032	0.012669	0.987331	0.012669	0.987331	8.066538e+18	33.300000	36.200000	
4.020000	4.044007	0.994063	0.012599	0.987401	0.012599	0.987401	8.106820e+18	33.300000	36.200000	
4.030000	4.053941	0.994094	0.012530	0.987470	0.012530	0.987470	8.147203e+18	33.300000	36.200000	
4.040000	4.063874	0.994125	0.012461	0.987539	0.012461	0.987539	8.187685e+18	33.300000	36.200000	
4.050000	4.073808	0.994156	0.012392	0.987608	0.012392	0.987608	8.228269e+18	33.300000	36.200000	
4.060000	4.083742	0.994186	0.012324	0.987676	0.012324	0.987676	8.268952e+18	33.300000	36.200000	
4.070000	4.093677	0.994216	0.012257	0.987743	0.012257	0.987743	8.309736e+18	33.300000	36.200000	
4.080000	4.103612	0.994246	0.012191	0.987809	0.012191	0.987809	8.350620e+18	33.300000	36.200000	
4.090000	4.113548	0.994276	0.012124	0.987876	0.012124	0.987876	8.391605e+18	33.300000	36.200000	
4.100000	4.123483	0.994305	0.012059	0.987941	0.012059	0.987941	8.432690e+18	33.300000	36.200000	
4.110000	4.133420	0.994334	0.011994	0.988006	0.011994	0.988006	8.473875e+18	33.300000	36.200000	
4.120000	4.143356	0.994363	0.011929	0.988071	0.011929	0.988071	8.515161e+18	33.300000	36.200000	
4.130000	4.153293	0.994392	0.011865	0.988135	0.011865	0.988135	8.556547e+18	33.300000	36.200000	
4.140000	4.163230	0.994420	0.011802	0.988198	0.011802	0.988198	8.598033e+18	33.300000	36.200000	
4.150000	4.173168	0.994448	0.011739	0.988261	0.011739	0.988261	8.639619e+18	33.300000	36.200000	
4.160000	4.183106	0.994476	0.011677	0.988323	0.011677	0.988323	8.681306e+18	33.300000	36.200000	
4.170000	4.193044	0.994504	0.011615	0.988385	0.011615	0.988385	8.723094e+18	33.300000	36.200000	
4.180000	4.202983	0.994532	0.011553	0.988447	0.011553	0.988447	8.764981e+18	33.300000	36.200000	
4.190000	4.212922	0.994559	0.011493	0.988507	0.011493	0.988507	8.806969e+18	33.300000	36.200000	
4.200000	4.222861	0.994586	0.011432	0.988568	0.011432	0.988568	8.849057e+18	33.300000	36.200000	
4.210000	4.232801	0.994613	0.011372	0.988628	0.011372	0.988628	8.891246e+18	33.300000	36.200000	
4.220000	4.242741	0.994640	0.011313	0.988687	0.011313	0.988687	8.933535e+18	33.300000	36.200000	
4.230000	4.252681	0.994667	0.011254	0.988746	0.011254	0.988746	8.975924e+18	33.300000	36.200000	
4.240000	4.262622	0.994693	0.011195	0.988805	0.011195	0.988805	9.018413e+18	33.300000	36.200000	
4.250000	4.272563	0.994719	0.011137	0.988863	0.011137	0.988863	9.061003e+18	33.300000	36.200000	
4.260000	4.282504	0.994745	0.011080	0.988920	0.011080	0.988920	9.103693e+18	33.300000	36.200000	
4.270000	4.292446	0.994771	0.011023	0.988977	0.011023	0.988977	9.146484e+18	33.300000	36.200000	
4.280000	4.302388	0.994796	0.010966	0.989034	0.010966	0.989034	9.189375e+18	33.300000	36.200000	
4.290000	4.312330	0.994822	0.010910	0.989090	0.010910	0.989090	9.232366e+18	33.300000	36.200000	
4.300000	4.322272	0.994847	0.010854	0.989146	0.010854	0.989146	9.275457e+18	33.300000	36.200000	
4.310000	4.332215	0.994872	0.010799	0.989201	0.010799	0.989201	9.318649e+18	33.300000	36.200000	
4.320000	4.342158	0.994897	0.010744	0.989256	0.010744	0.989256	9.361941e+18	33.300000	36.200000	
4.330000	4.352102	0.994922	0.010690	0.989310	0.010690	0.989310	9.405334e+18	33.300000	36.200000	
4.340000	4.362045	0.994946	0.010636	0.989364	0.010636	0.989364	9.448827e+18	33.300000	36.200000	
4.350000	4.371990	0.994970	0.010582	0.989418	0.010582	0.989418	9.492420e+18	33.300000	36.200000	
4.360000	4.381934	0.994994	0.010529	0.989471	0.010529	0.989471	9.536113e+18	33.300000	36.200000	
4.370000	4.391878	0.995018	0.010476	0.989524	0.010476	0.989524	9.579907e+18	33.300000	36.200000	
4.380000	4.401823	0.995042	0.010424	0.989576	0.010424	0.989576	9.623801e+18	33.300000	36.200000	
4.390000	4.411769	0.995066	0.010372	0.989628	0.010372	0.989628	9.667796e+18	33.300000	36.200000	
4.400000	4.421714	0.995089	0.010320	0.989680	0.010320	0.989680	9.711890e+18	33.300000	36.200000	
4.410000	4.431660	0.995112	0.010269	0.989731	0.010269	0.989731	9.756086e+18	33.300000	36.200000	
4.420000	4.441606	0.995136	0.010218	0.989782	0.010218	0.989782	9.800381e+18	33.300000	36.200000	
4.430000	4.451552	0.995158	0.010168	0.989832	0.010168	0.989832	9.844777e+18	33.300000	36.200000	
4.440000	4.461499	0.995181	0.010118	0.989882	0.010118	0.989882	9.889273e+18	33.300000	36.200000	
4.450000	4.471446	0.995204	0.010068	0.989932	0.010068	0.989932	9.933869e+18	33.300000	36.200000	
4.460000	4.481393	0.995226	0.010019	0.989981	0.010019	0.989981	9.978566e+18	33.300000	36.200000	
4.470000	4.491340	0.995249	0.009970	0.990030	0.009970	0.990030	1.002336e+19	33.300000	36.200000	
4.480000	4.501288	0.995271	0.009921	0.990079	0.009921	0.990079	1.006826e+19	33.300000	36.200000	
4.490000	4.511236	0.995293	0.009873	0.990127	0.009873	0.990127	1.011326e+19	33.300000	36.200000	
4.500000	4.521184	0.995314	0.009825	0.990175	0.009825	0.990175	1.015836e+19	33.300000	36.200000	
4.510000	4.531133	0.995336	0.009778	0.990222	0.009778	0.990222	1.020355e+19	33.300000	36.200000	
4.520000	4.541082	0.995358	0.009731	0.990269	0.009731	0.990269	1.024885e+19	33.300000	36.200000	
4.530000	4.551031	0.995379	0.009684	0.990316	0.009684	0.990316	1.029425e+19	33.300000	36.200000	
4.540000	4.560980	0.995400	0.009638	0.990362	0.009638	0.990362	1.033975e+19	33.300000	36.200000	
4.550000	4.570929	0.995421	0.009591	0.990409	0.009591	0.990409	1.038535e+19	33.300000	36.200000	
4.560000	4.580879	0.995442	0.009546	0.990454	0.009546	0.990454	1.043105e+19	33.300000	36.200000	
4.570000	4.590829	0.995463	0.009500	0.990500	0.009500	0.990500	1.047685e+19	33.300000	36.200000	
4.580000	4.600779	0.995484	0.009455	0.990545	0.009455	0.990545	1.052275e+19	33.300000	36.200000	
4.590000	4.610730	0.995504	0.009410	0.990590	0.009410	0.990590	1.056875e+19	33.300000	36.200000	
4.600000	4.620681	0.995524	0.009366	0.990634	0.009366	0.990634	1.061486e+19	33.300000	36.200000	
4.610000	4.630632	0.995545	0.009322	0.990678	0.009322	0.990678	1.066106e+19	33.300000	36.200000	
4.620000	4.640583	0.995565	0.009278	0.990722	0.009278	0.990722	1.070736e+19	33.300000	36.200000	
4.630000	4.650534	0.995585	0.009235	0.990765	0.009235	0.990765	1.075376e+19	33.300000	36.200000	
4.640000	4.660486	0.995604	0.009192	0.990808	0.009192	0.990808	1.080026e+19	33.300000	36.200000	
4.650000	4.670438	0.995624	0.009149	0.990851	0.009149	0.990851	1.084687e+19	33.300000	36.200000	
4.660000	4.680390	0.995643	0.009106	0.990894	0.009106	0.990894	1.089357e+19	33.300000	36.200000	
4.670000	4.690343	0.995663	0.009064	0.990936	0.009064	0.990936	1.094037e+19	33.300000	36.200000	
4.680000	4.700295	0.995682	0.009022	0.990978	0.009022	0.990978	1.098728e+19	33.300000	36.200000	
4.690000	4.710248	0.995701	0.008980	0.991020	0.008980	0.991020	1.103428e+19	33.300000	36.200000	
4.700000	4.720201	0.995720	0.008939	0.991061	0.008939	0.991061	1.108139e+19	33.300000	36.200000	
4.710000	4.730155	0.995739	0.008898	0.991102	0.008898	0.991102	1.112859e+19	33.300000	36.200000	
4.720000	4.740108	0.995758	0.008857	0.991143	0.008857	0.991143	1.117590e+19	33.300000	36.200000	
4.730000	4.750062	0.995777	0.008817	0.991183	0.008817	0.991183	1.122330e+19	33.300000	36.200000	
4.740000	4.760016	0.995795	0.008776	0.991224	0.008776	0.991224	1.127081e+19	33.300000	36.200000	
4.750000	4.769970	0.995813	0.008736	0.991264	0.008736	0.991264	1.131842e+19	33.300000	36.200000	
4.760000	4.779924	0.995832	0.008697	0.991303	0.008697	0.991303	1.136612e+19	33.300000	36.200000	
4.770000	4.789879	0.995850	0.008657	0.991343	0.008657	0.991343	1.141393e+19	33.300000	36.200000	
4.780000	4.799834	0.995868	0.008618	0.991382	0.008618	0.991382	1.146184e+19	33.300000	36.200000	
4.790000	4.809789	0.995886	0.008580	0.991420	0.008580	0.991420	1.150984e+19	33.300000	36.200000	
4.800000	4.819744	0.995903	0.008541	0.991459	0.008541	0.991459	1.155795e+19	33.300000	36.200000	
4.810000	4.829700	0.995921	0.008503	0.991497	0.008503	0.991497	1.160616e+19	33.300000	36.200000	
4.820000	4.839655	0.995939	0.008465	0.991535	0.008465	0.991535	1.165447e+19	33.300000	36.200000	
4.830000	4.849611	0.995956	0.008427	0.991573	0.008427	0.991573	1.170288e+19	33.300000	36.200000	
4.840000	4.859567	0.995973	0.008389	0.991611	0.008389	0.991611	1.175139e+19	33.300000	36.200000	
4.850000	4.869524	0.995991	0.008352	0.991648	0.008352	0.991648	1.180000e+19	33.300000	36.200000	
4.860000	4.879480	0.996008	0.008315	0.991685	0.008315	0.991685	1.184871e+19	33.300000	36.200000	
4.870000	4.889437	0.996025	0.008278	0.991722	0.008278	0.991722	1.189752e+19	33.300000	36.200000	
4.880000	4.899394	0.996042	0.008242	0.991758	0.008242	0.991758	1.194643e+19	33.300000	36.200000	
4.890000	4.909351	0.996058	0.008206	0.991794	0.008206	0.991794	1.199544e+19	33.300000	36.200000	
4.900000	4.919308	0.996075	0.008169	0.991831	0.008169	0.991831	1.204455e+19	33.300000	36.200000	
4.910000	4.929266	0.996092	0.008134	0.991866	0.008134	0.991866	1.209376e+19	33.300000	36.200000	
4.920000	4.939223	0.996108	0.008098	0.991902	0.008098	0.991902	1.214307e+19	33.300000	36.200000	
4.930000	4.949181	0.996124	0.008063	0.991937	0.008063	0.991937	1.219249e+19	33.300000	36.200000	
4.940000	4.959139	0.996141	0.008028	0.991972	0.008028	0.991972	1.224200e+19	33.300000	36.200000	
4.950000	4.969098	0.996157	0.007993	0.992007	0.007993	0.992007	1.229161e+19	33.300000	36.200000	
4.960000	4.979056	0.996173	0.007958	0.992042	0.007958	0.992042	1.234132e+19	33.300000	36.200000	
4.970000	4.989015	0.996189	0.007924	0.992076	0.007924	0.992076	1.239114e+19	33.300000	36.200000	
4.980000	4.998973	0.996205	0.007890	0.992110	0.007890	0.992110	1.244105e+19	33.300000	36.200000	
4.990000	5.008932	0.996220	0.007856	0.992144	0.007856	0.992144	1.249107e+19	33.300000	36.200000	
5.000000	5.018892	0.996236	0.007822	0.992178	0.007822	0.992178	1.254118e+19	33.300000	36.200000	
5.010000	5.028851	0.996251	0.007789	0.992211	0.007789	0.992211	1.259140e+19	33.300000	36.200000	
5.020000	5.038810	0.996267	0.007755	0.992245	0.007755	0.992245	1.264171e+19	33.300000	36.200000	
5.030000	5.048770	0.996282	0.007722	0.992278	0.007722	0.992278	1.269213e+19	33.300000	36.200000	
5.040000	5.058730	0.996297	0.007690	0.992310	0.007690	0.992310	1.274264e+19	33.300000	36.200000	
5.050000	5.068690	0.996313	0.007657	0.992343	0.007657	0.992343	1.279326e+19	33.300000	36.200000	
5.060000	5.078650	0.996328	0.007625	0.992375	0.007625	0.992375	1.284398e+19	33.300000	36.200000	
5.070000	5.088611	0.996343	0.007592	0.992408	0.007592	0.992408	1.289479e+19	33.300000	36.200000	
5.080000	5.098571	0.996358	0.007560	0.992440	0.007560	0.992440	1.294571e+19	33.300000	36.200000	
5.090000	5.108532	0.996372	0.007529	0.992471	0.007529	0.992471	1.299673e+19	33.300000	36.200000	
5.100000	5.118493	0.996387	0.007497	0.992503	0.007497	0.992503	1.304784e+19	33.300000	36.200000	
5.110000	5.128454	0.996402	0.007466	0.992534	0.007466	0.992534	1.309906e+19	33.300000	36.200000	
5.120000	5.138415	0.996416	0.007434	0.992566	0.007434	0.992566	1.315038e+19	33.300000	36.200000	
5.130000	5.148377	0.996431	0.007403	0.992597	0.007403	0.992597	1.320180e+19	33.300000	36.200000	
5.140000	5.158338	0.996445	0.007373	0.992627	0.007373	0.992627	1.325332e+19	33.300000	36.200000	
5.150000	5.168300	0.996459	0.007342	0.992658	0.007342	0.992658	1.330494e+19	33.300000	36.200000	
5.160000	5.178262	0.996473	0.007312	0.992688	0.007312	0.992688	1.335666e+19	33.300000	36.200000	
5.170000	5.188224	0.996487	0.007282	0.992718	0.007282	0.992718	1.340848e+19	33.300000	36.200000	
5.180000	5.198187	0.996501	0.007252	0.992748	0.007252	0.992748	1.346040e+19	33.300000	36.200000	
5.190000	5.208149	0.996515	0.007222	0.992778	0.007222	0.992778	1.351242e+19	33.300000	36.200000	
5.200000	5.218112	0.996529	0.007192	0.992808	0.007192	0.992808	1.356454e+19	33.300000	36.200000	
5.210000	5.228074	0.996543	0.007163	0.992837	0.007163	0.992837	1.361676e+19	33.300000	36.200000	
5.220000	5.238037	0.996557	0.007133	0.992867	0.007133	0.992867	1.366908e+19	33.300000	36.200000	
5.230000	5.248000	0.996570	0.007104	0.992896	0.007104	0.992896	1.372151e+19	33.300000	36.200000	
5.240000	5.257963	0.996584	0.007075	0.992925	0.007075	0.992925	1.377403e+19	33.300000	36.200000	
5.250000	5.267927	0.996597	0.007047	0.992953	0.007047	0.992953	1.382665e+19	33.300000	36.200000	
5.260000	5.277890	0.996610	0.007018	0.992982	0.007018	0.992982	1.387937e+19	33.300000	36.200000	
5.270000	5.287854	0.996624	0.006990	0.993010	0.006990	0.993010	1.393220e+19	33.300000	36.200000	
5.280000	5.297818	0.996637	0.006962	0.993038	0.006962	0.993038	1.398512e+19	33.300000	36.200000	
5.290000	5.307782	0.996650	0.006934	0.993066	0.006934	0.993066	1.403815e+19	33.300000	36.200000	
5.300000	5.317746	0.996663	0.006906	0.993094	0.006906	0.993094	1.409127e+19	33.300000	36.200000	
5.310000	5.327710	0.996676	0.006878	0.993122	0.006878	0.993122	1.414450e+19	33.300000	36.200000	
5.320000	5.337675	0.996689	0.006850	0.993150	0.006850	0.993150	1.419782e+19	33.300000	36.200000	
5.330000	5.347639	0.996702	0.006823	0.993177	0.006823	0.993177	1.425125e+19	33.300000	36.200000	
5.340000	5.357604	0.996714	0.006796	0.993204	0.006796	0.993204	1.430477e+19	33.300000	36.200000	
5.350000	5.367569	0.996727	0.006769	0.993231	0.006769	0.993231	1.435840e+19	33.300000	36.200000	
5.360000	5.377534	0.996739	0.006742	0.993258	0.006742	0.993258	1.441212e+19	33.300000	36.200000	
5.370000	5.387499	0.996752	0.006715	0.993285	0.006715	0.993285	1.446595e+19	33.300000	36.200000	
5.380000	5.397464	0.996764	0.006689	0.993311	0.006689	0.993311	1.451988e+19	33.300000	36.200000	
5.390000	5.407430	0.996777	0.006663	0.993337	0.006663	0.993337	1.457391e+19	33.300000	36.200000	
5.400000	5.417395	0.996789	0.006636	0.993364	0.006636	0.993364	1.462803e+19	33.300000	36.200000	
5.410000	5.427361	0.996801	0.006610	0.993390	0.006610	0.993390	1.468226e+19	33.300000	36.200000	
5.420000	5.437327	0.996813	0.006584	0.993416	0.006584	0.993416	1.473659e+19	33.300000	36.200000	
5.430000	5.447293	0.996825	0.006559	0.993441	0.006559	0.993441	1.479102e+19	33.300000	36.200000	
5.440000	5.457259	0.996837	0.006533	0.993467	0.006533	0.993467	1.484555e+19	33.300000	36.200000	
5.450000	5.467225	0.996849	0.006508	0.993492	0.006508	0.993492	1.490018e+19	33.300000	36.200000	
5.460000	5.477191	0.996861	0.006482	0.993518	0.006482	0.993518	1.495491e+19	33.300000	36.200000	
5.470000	5.487158	0.996873	0.006457	0.993543	0.006457	0.993543	1.500974e+19	33.300000	36.200000	
5.480000	5.497125	0.996885	0.006432	0.993568	0.006432	0.993568	1.506467e+19	33.300000	36.200000	
5.490000	5.507091	0.996896	0.006407	0.993593	0.006407	0.993593	1.511970e+19	33.300000	36.200000	
5.500000	5.517058	0.996908	0.006383	0.993617	0.006383	0.993617	1.517483e+19	33.300000	36.200000	
5.510000	5.527025	0.996920	0.006358	0.993642	0.006358	0.993642	1.523006e+19	33.300000	36.200000	
5.520000	5.536993	0.996931	0.006334	0.993666	0.006334	0.993666	1.528539e+19	33.300000	36.200000	
5.530000	5.546960	0.996942	0.006309	0.993691	0.006309	0.993691	1.534082e+19	33.300000	36.200000	
5.540000	5.556927	0.996954	0.006285	0.993715	0.006285	0.993715	1.539636e+19	33.300000	36.200000	
5.550000	5.566895	0.996965	0.006261	0.993739	0.006261	0.993739	1.545199e+19	33.300000	36.200000	
5.560000	5.576863	0.996976	0.006238	0.993762	0.006238	0.993762	1.550772e+19	33.300000	36.200000	
5.570000	5.586830	0.996987	0.006214	0.993786	0.006214	0.993786	1.556356e+19	33.300000	36.200000	
5.580000	5.596798	0.996999	0.006190	0.993810	0.006190	0.993810	1.561949e+19	33.300000	36.200000	
5.590000	5.606766	0.997010	0.006167	0.993833	0.006167	0.993833	1.567552e+19	33.300000	36.200000	
5.600000	5.616735	0.997021	0.006144	0.993856	0.006144	0.993856	1.573166e+19	33.300000	36.200000	
5.610000	5.626703	0.997031	0.006120	0.993880	0.006120	0.993880	1.578789e+19	33.300000	36.200000	
5.620000	5.636671	0.997042	0.006097	0.993903	0.006097	0.993903	1.584423e+19	33.300000	36.200000	
5.630000	5.646640	0.997053	0.006074	0.993926	0.006074	0.993926	1.590066e+19	33.300000	36.200000	
5.640000	5.656609	0.997064	0.006052	0.993948	0.006052	0.993948	1.595720e+19	33.300000	36.200000	
5.650000	5.666578	0.997075	0.006029	0.993971	0.006029	0.993971	1.601383e+19	33.300000	36.200000	
5.660000	5.676546	0.997085	0.006007	0.993993	0.006007	0.993993	1.607057e+19	33.300000	36.200000	
5.670000	5.686516	0.997096	0.005984	0.994016	0.005984	0.994016	1.612741e+19	33.300000	36.200000	
5.680000	5.696485	0.997106	0.005962	0.994038	0.005962	0.994038	1.618434e+19	33.300000	36.200000	
5.690000	5.706454	0.997117	0.005940	0.994060	0.005940	0.994060	1.624138e+19	33.300000	36.200000	
5.700000	5.716423	0.997127	0.005918	0.994082	0.005918	0.994082	1.629852e+19	33.300000	36.200000	
5.710000	5.726393	0.997137	0.005896	0.994104	0.005896	0.994104	1.635576e+19	33.300000	36.200000	
5.720000	5.736363	0.997148	0.005874	0.994126	0.005874	0.994126	1.641309e+19	33.300000	36.200000	
5.730000	5.746332	0.997158	0.005853	0.994147	0.005853	0.994147	1.647053e+19	33.300000	36.200000	
5.740000	5.756302	0.997168	0.005831	0.994169	0.005831	0.994169	1.652807e+19	33.300000	36.200000	
5.750000	5.766272	0.997178	0.005810	0.994190	0.005810	0.994190	1.658571e+19	33.300000	36.200000	
5.760000	5.776242	0.997188	0.005788	0.994212	0.005788	0.994212	1.664345e+19	33.300000	36.200000	
5.770000	5.786212	0.997198	0.005767	0.994233	0.005767	0.994233	1.670129e+19	33.300000	36.200000	
5.780000	5.796183	0.997208	0.005746	0.994254	0.005746	0.994254	1.675923e+19	33.300000	36.200000	
5.790000	5.806153	0.997218	0.005725	0.994275	0.005725	0.994275	1.681727e+19	33.300000	36.200000	
5.800000	5.816124	0.997228	0.005705	0.994295	0.005705	0.994295	1.687541e+19	33.300000	36.200000	
5.810000	5.826094	0.997238	0.005684	0.994316	0.005684	0.994316	1.693365e+19	33.300000	36.200000	
5.820000	5.836065	0.997247	0.005663	0.994337	0.005663	0.994337	1.699200e+19	33.300000	36.200000	
5.830000	5.846036	0.997257	0.005643	0.994357	0.005643	0.994357	1.705044e+19	33.300000	36.200000	
5.840000	5.856007	0.997267	0.005622	0.994378	0.005622	0.994378	1.710898e+19	33.300000	36.200000	
5.850000	5.865978	0.997276	0.005602	0.994398	0.005602	0.994398	1.716762e+19	33.300000	36.200000	
5.860000	5.875949	0.997286	0.005582	0.994418	0.005582	0.994418	1.722637e+19	33.300000	36.200000	
5.870000	5.885921	0.997295	0.005562	0.994438	0.005562	0.994438	1.728521e+19	33.300000	36.200000	
5.880000	5.895892	0.997305	0.005542	0.994458	0.005542	0.994458	1.734415e+19	33.300000	36.200000	
5.890000	5.905863	0.997314	0.005522	0.994478	0.005522	0.994478	1.740320e+19	33.300000	36.200000	
5.900000	5.915835	0.997323	0.005503	0.994497	0.005503	0.994497	1.746234e+19	33.300000	36.200000	
5.910000	5.925807	0.997333	0.005483	0.994517	0.005483	0.994517	1.752158e+19	33.300000	36.200000	
5.920000	5.935779	0.997342	0.005464	0.994536	0.005464	0.994536	1.758093e+19	33.300000	36.200000	
5.930000	5.945751	0.997351	0.005444	0.994556	0.005444	0.994556	1.764037e+19	33.300000	36.200000	
5.940000	5.955723	0.997360	0.005425	0.994575	0.005425	0.994575	1.769992e+19	33.300000	36.200000	
5.950000	5.965695	0.997369	0.005406	0.994594	0.005406	0.994594	1.775957e+19	33.300000	36.200000	
5.960000	5.975667	0.997378	0.005387	0.994613	0.005387	0.994613	1.781931e+19	33.300000	36.200000	
5.970000	5.985639	0.997387	0.005368	0.994632	0.005368	0.994632	1.787916e+19	33.300000	36.200000	
5.980000	5.995612	0.997396	0.005349	0.994651	0.005349	0.994651	1.793911e+19	33.300000	36.200000	
5.990000	6.005584	0.997405	0.005330	0.994670	0.005330	0.994670	1.799915e+19	33.300000	36.200000	
6.000000	6.015557	0.997414	0.005312	0.994688	0.005312	0.994688	1.805930e+19	33.300000	36.200000	
6.010000	6.025530	0.997423	0.005293	0.994707	0.005293	0.994707	1.811955e+19	33.300000	36.200000	
6.020000	6.035502	0.997431	0.005275	0.994725	0.005275	0.994725	1.817990e+19	33.300000	36.200000	
6.030000	6.045475	0.997440	0.005256	0.994744	0.005256	0.994744	1.824034e+19	33.300000	36.200000	
6.040000	6.055448	0.997449	0.005238	0.994762	0.005238	0.994762	1.830089e+19	33.300000	36.200000	
6.050000	6.065421	0.997457	0.005220	0.994780	0.005220	0.994780	1.836154e+19	33.300000	36.200000	
6.060000	6.075395	0.997466	0.005202	0.994798	0.005202	0.994798	1.842229e+19	33.300000	36.200000	
6.070000	6.085368	0.997475	0.005184	0.994816	0.005184	0.994816	1.848314e+19	33.300000	36.200000	
6.080000	6.095341	0.997483	0.005166	0.994834	0.005166	0.994834	1.854409e+19	33.300000	36.200000	
6.090000	6.105315	0.997492	0.005148	0.994852	0.005148	0.994852	1.860514e+19	33.300000	36.200000	
6.100000	6.115288	0.997500	0.005130	0.994870	0.005130	0.994870	1.866629e+19	33.300000	36.200000	
6.110000	6.125262	0.997508	0.005113	0.994887	0.005113	0.994887	1.872754e+19	33.300000	36.200000	
6.120000	6.135236	0.997517	0.005095	0.994905	0.005095	0.994905	1.878890e+19	33.300000	36.200000	
6.130000	6.145210	0.997525	0.005078	0.994922	0.005078	0.994922	1.885035e+19	33.300000	36.200000	
6.140000	6.155184	0.997533	0.005060	0.994940	0.005060	0.994940	1.891190e+19	33.300000	36.200000	
6.150000	6.165158	0.997541	0.005043	0.994957	0.005043	0.994957	1.897355e+19	33.300000	36.200000	
6.160000	6.175132	0.997550	0.005026	0.994974	0.005026	0.994974	1.903531e+19	33.300000	36.200000	
6.170000	6.185106	0.997558	0.005009	0.994991	0.005009	0.994991	1.909716e+19	33.300000	36.200000	
6.180000	6.195080	0.997566	0.004992	0.995008	0.004992	0.995008	1.915911e+19	33.300000	36.200000	
6.190000	6.205055	0.997574	0.004975	0.995025	0.004975	0.995025	1.922117e+19	33.300000	36.200000	
6.200000	6.215029	0.997582	0.004958	0.995042	0.004958	0.995042	1.928332e+19	33.300000	36.200000	
6.210000	6.225004	0.997590	0.004942	0.995058	0.004942	0.995058	1.934557e+19	33.300000	36.200000	
6.220000	6.234979	0.997598	0.004925	0.995075	0.004925	0.995075	1.940793e+19	33.300000	36.200000	
6.230000	6.244953	0.997606	0.004908	0.995092	0.004908	0.995092	1.947038e+19	33.300000	36.200000	
6.240000	6.254928	0.997613	0.004892	0.995108	0.004892	0.995108	1.953294e+19	33.300000	36.200000	
6.250000	6.264903	0.997621	0.004876	0.995124	0.004876	0.995124	1.959559e+19	33.300000	36.200000	
6.260000	6.274878	0.997629	0.004859	0.995141	0.004859	0.995141	1.965835e+19	33.300000	36.200000	
6.270000	6.284853	0.997637	0.004843	0.995157	0.004843	0.995157	1.972121e+19	33.300000	36.200000	
6.280000	6.294828	0.997644	0.004827	0.995173	0.004827	0.995173	1.978416e+19	33.300000	36.200000	
6.290000	6.304804	0.997652	0.004811	0.995189	0.004811	0.995189	1.984722e+19	33.300000	36.200000	
6.300000	6.314779	0.997660	0.004795	0.995205	0.004795	0.995205	1.991038e+19	33.300000	36.200000	
6.310000	6.324754	0.997667	0.004779	0.995221	0.004779	0.995221	1.997364e+19	33.300000	36.200000	
6.320000	6.334730	0.997675	0.004763	0.995237	0.004763	0.995237	2.003699e+19	33.300000	36.200000	
6.330000	6.344706	0.997682	0.004748	0.995252	0.004748	0.995252	2.010045e+19	33.300000	36.200000	
6.340000	6.354681	0.997690	0.004732	0.995268	0.004732	0.995268	2.016401e+19	33.300000	36.200000	
6.350000	6.364657	0.997697	0.004716	0.995284	0.004716	0.995284	2.022767e+19	33.300000	36.200000	
6.360000	6.374633	0.997705	0.004701	0.995299	0.004701	0.995299	2.029143e+19	33.300000	36.200000	
6.370000	6.384609	0.997712	0.004685	0.995315	0.004685	0.995315	2.035529e+19	33.300000	36.200000	
6.380000	6.394585	0.997719	0.004670	0.995330	0.004670	0.995330	2.041925e+19	33.300000	36.200000	
6.390000	6.404561	0.997726	0.004655	0.995345	0.004655	0.995345	2.048331e+19	33.300000	36.200000	
6.400000	6.414537	0.997734	0.004640	0.995360	0.004640	0.995360	2.054747e+19	33.300000	36.200000	
6.410000	6.424513	0.997741	0.004625	0.995375	0.004625	0.995375	2.061173e+19	33.300000	36.200000	
6.420000	6.434490	0.997748	0.004610	0.995390	0.004610	0.995390	2.067609e+19	33.300000	36.200000	
6.430000	6.444466	0.997755	0.004595	0.995405	0.004595	0.995405	2.074055e+19	33.300000	36.200000	
6.440000	6.454443	0.997762	0.004580	0.995420	0.004580	0.995420	2.080512e+19	33.300000	36.200000	
6.450000	6.464419	0.997769	0.004565	0.995435	0.004565	0.995435	2.086978e+19	33.300000	36.200000	
6.460000	6.474396	0.997777	0.004550	0.995450	0.004550	0.995450	2.093454e+19	33.300000	36.200000	
6.470000	6.484372	0.997784	0.004535	0.995465	0.004535	0.995465	2.099940e+19	33.300000	36.200000	
6.480000	6.494349	0.997790	0.004521	0.995479	0.004521	0.995479	2.106437e+19	33.300000	36.200000	
6.490000	6.504326	0.997797	0.004506	0.995494	0.004506	0.995494	2.112943e+19	33.300000	36.200000	
6.500000	6.514303	0.997804	0.004492	0.995508	0.004492	0.995508	2.119460e+19	33.300000	36.200000	
6.510000	6.524280	0.997811	0.004477	0.995523	0.004477	0.995523	2.125986e+19	33.300000	36.200000	
6.520000	6.534257	0.997818	0.004463	0.995537	0.004463	0.995537	2.132522e+19	33.300000	36.200000	
6.530000	6.544234	0.997825	0.004449	0.995551	0.004449	0.995551	2.139069e+19	33.300000	36.200000	
6.540000	6.554212	0.997832	0.004435	0.995565	0.004435	0.995565	2.145625e+19	33.300000	36.200000	
6.550000	6.564189	0.997838	0.004421	0.995579	0.004421	0.995579	2.152192e+19	33.300000	36.200000	
6.560000	6.574166	0.997845	0.004407	0.995593	0.004407	0.995593	2.158769e+19	33.300000	36.200000	
6.570000	6.584144	0.997852	0.004393	0.995607	0.004393	0.995607	2.165355e+19	33.300000	36.200000	
6.580000	6.594121	0.997858	0.004379	0.995621	0.004379	0.995621	2.171952e+19	33.300000	36.200000	
6.590000	6.604099	0.997865	0.004365	0.995635	0.004365	0.995635	2.178559e+19	33.300000	36.200000	
6.600000	6.614077	0.997872	0.004351	0.995649	0.004351	0.995649	2.185175e+19	33.300000	36.200000	
6.610000	6.624054	0.997878	0.004337	0.995663	0.004337	0.995663	2.191802e+19	33.300000	36.200000	
6.620000	6.634032	0.997885	0.004324	0.995676	0.004324	0.995676	2.198439e+19	33.300000	36.200000	
6.630000	6.644010	0.997891	0.004310	0.995690	0.004310	0.995690	2.205086e+19	33.300000	36.200000	
6.640000	6.653988	0.997898	0.004297	0.995703	0.004297	0.995703	2.211743e+19	33.300000	36.200000	
6.650000	6.663966	0.997904	0.004283	0.995717	0.004283	0.995717	2.218409e+19	33.300000	36.200000	
6.660000	6.673944	0.997911	0.004270	0.995730	0.004270	0.995730	2.225086e+19	33.300000	36.200000	
6.670000	6.683922	0.997917	0.004257	0.995743	0.004257	0.995743	2.231773e+19	33.300000	36.200000	
6.680000	6.693901	0.997923	0.004243	0.995757	0.004243	0.995757	2.238470e+19	33.300000	36.200000	
6.690000	6.703879	0.997930	0.004230	0.995770	0.004230	0.995770	2.245177e+19	33.300000	36.200000	
6.700000	6.713857	0.997936	0.004217	0.995783	0.004217	0.995783	2.251894e+19	33.300000	36.200000	
6.710000	6.723836	0.997942	0.004204	0.995796	0.004204	0.995796	2.258622e+19	33.300000	36.200000	
6.720000	6.733814	0.997948	0.004191	0.995809	0.004191	0.995809	2.265359e+19	33.300000	36.200000	
6.730000	6.743793	0.997955	0.004178	0.995822	0.004178	0.995822	2.272106e+19	33.300000	36.200000	
6.740000	6.753772	0.997961	0.004165	0.995835	0.004165	0.995835	2.278863e+19	33.300000	36.200000	
6.750000	6.763750	0.997967	0.004152	0.995848	0.004152	0.995848	2.285630e+19	33.300000	36.200000	
6.760000	6.773729	0.997973	0.004139	0.995861	0.004139	0.995861	2.292407e+19	33.300000	36.200000	
6.770000	6.783708	0.997979	0.004127	0.995873	0.004127	0.995873	2.299195e+19	33.300000	36.200000	
6.780000	6.793687	0.997985	0.004114	0.995886	0.004114	0.995886	2.305992e+19	33.300000	36.200000	
6.790000	6.803666	0.997991	0.004101	0.995899	0.004101	0.995899	2.312799e+19	33.300000	36.200000	
6.800000	6.813645	0.997997	0.004089	0.995911	0.004089	0.995911	2.319617e+19	33.300000	36.200000	
6.810000	6.823624	0.998003	0.004076	0.995924	0.004076	0.995924	2.326444e+19	33.300000	36.200000	
6.820000	6.833603	0.998009	0.004064	0.995936	0.004064	0.995936	2.333282e+19	33.300000	36.200000	
6.830000	6.843583	0.998015	0.004052	0.995948	0.004052	0.995948	2.340129e+19	33.300000	36.200000	
6.840000	6.853562	0.998021	0.004039	0.995961	0.004039	0.995961	2.346987e+19	33.300000	36.200000	
6.850000	6.863541	0.998027	0.004027	0.995973	0.004027	0.995973	2.353854e+19	33.300000	36.200000	
6.860000	6.873521	0.998033	0.004015	0.995985	0.004015	0.995985	2.360732e+19	33.300000	36.200000	
6.870000	6.883500	0.998039	0.004003	0.995997	0.004003	0.995997	2.367619e+19	33.300000	36.200000	
6.880000	6.893480	0.998045	0.003991	0.996009	0.003991	0.996009	2.374517e+19	33.300000	36.200000	
6.890000	6.903460	0.998050	0.003979	0.996021	0.003979	0.996021	2.381425e+19	33.300000	36.200000	
6.900000	6.913439	0.998056	0.003967	0.996033	0.003967	0.996033	2.388342e+19	33.300000	36.200000	
6.910000	6.923419	0.998062	0.003955	0.996045	0.003955	0.996045	2.395270e+19	33.300000	36.200000	
6.920000	6.933399	0.998067	0.003943	0.996057	0.003943	0.996057	2.402208e+19	33.300000	36.200000	
6.930000	6.943379	0.998073	0.003931	0.996069	0.003931	0.996069	2.409156e+19	33.300000	36.200000	
6.940000	6.953359	0.998079	0.003919	0.996081	0.003919	0.996081	2.416114e+19	33.300000	36.200000	
6.950000	6.963339	0.998084	0.003908	0.996092	0.003908	0.996092	2.423082e+19	33.300000	36.200000	
6.960000	6.973319	0.998090	0.003896	0.996104	0.003896	0.996104	2.430059e+19	33.300000	36.200000	
6.970000	6.983299	0.998096	0.003884	0.996116	0.003884	0.996116	2.437047e+19	33.300000	36.200000	
6.980000	6.993279	0.998101	0.003873	0.996127	0.003873	0.996127	2.444045e+19	33.300000	36.200000	
6.990000	7.003259	0.998107	0.003861	0.996139	0.003861	0.996139	2.451053e+19	33.300000	36.200000	
7.000000	7.013240	0.998112	0.003850	0.996150	0.003850	0.996150	2.458071e+19	33.300000	36.200000	
7.010000	7.023220	0.998118	0.003839	0.996161	0.003839	0.996161	2.465100e+19	33.300000	36.200000	
7.020000	7.033200	0.998123	0.003827	0.996173	0.003827	0.996173	2.472138e+19	33.300000	36.200000	
7.030000	7.043181	0.998129	0.003816	0.996184	0.003816	0.996184	2.479186e+19	33.300000	36.200000	
7.040000	7.053161	0.998134	0.003805	0.996195	0.003805	0.996195	2.486244e+19	33.300000	36.200000	
7.050000	7.063142	0.998139	0.003794	0.996206	0.003794	0.996206	2.493312e+19	33.300000	36.200000	
7.060000	7.073123	0.998145	0.003782	0.996218	0.003782	0.996218	2.500390e+19	33.300000	36.200000	
7.070000	7.083103	0.998150	0.003771	0.996229	0.003771	0.996229	2.507479e+19	33.300000	36.200000	
7.080000	7.093084	0.998155	0.003760	0.996240	0.003760	0.996240	2.514577e+19	33.300000	36.200000	
7.090000	7.103065	0.998161	0.003749	0.996251	0.003749	0.996251	2.521685e+19	33.300000	36.200000	
7.100000	7.113046	0.998166	0.003738	0.996262	0.003738	0.996262	2.528804e+19	33.300000	36.200000	
7.110000	7.123027	0.998171	0.003728	0.996272	0.003728	0.996272	2.535932e+19	33.300000	36.200000	
7.120000	7.133008	0.998176	0.003717	0.996283	0.003717	0.996283	2.543071e+19	33.300000	36.200000	
7.130000	7.142989	0.998182	0.003706	0.996294	0.003706	0.996294	2.550219e+19	33.300000	36.200000	
7.140000	7.152970	0.998187	0.003695	0.996305	0.003695	0.996305	2.557378e+19	33.300000	36.200000	
7.150000	7.162951	0.998192	0.003684	0.996316	0.003684	0.996316	2.564546e+19	33.300000	36.200000	
7.160000	7.172933	0.998197	0.003674	0.996326	0.003674	0.996326	2.571725e+19	33.300000	36.200000	
7.170000	7.182914	0.998202	0.003663	0.996337	0.003663	0.996337	2.578913e+19	33.300000	36.200000	
7.180000	7.192895	0.998207	0.003653	0.996347	0.003653	0.996347	2.586112e+19	33.300000	36.200000	
7.190000	7.202877	0.998212	0.003642	0.996358	0.003642	0.996358	2.593321e+19	33.300000	36.200000	
7.200000	7.212858	0.998217	0.003632	0.996368	0.003632	0.996368	2.600539e+19	33.300000	36.200000	
7.210000	7.222839	0.998222	0.003621	0.996379	0.003621	0.996379	2.607768e+19	33.300000	36.200000	
7.220000	7.232821	0.998227	0.003611	0.996389	0.003611	0.996389	2.615007e+19	33.300000	36.200000	
7.230000	7.242803	0.998232	0.003601	0.996399	0.003601	0.996399	2.622256e+19	33.300000	36.200000	
7.240000	7.252784	0.998237	0.003590	0.996410	0.003590	0.996410	2.629514e+19	33.300000	36.200000	
7.250000	7.262766	0.998242	0.003580	0.996420	0.003580	0.996420	2.636783e+19	33.300000	36.200000	
7.260000	7.272748	0.998247	0.003570	0.996430	0.003570	0.996430	2.644062e+19	33.300000	36.200000	
7.270000	7.282730	0.998252	0.003560	0.996440	0.003560	0.996440	2.651351e+19	33.300000	36.200000	
7.280000	7.292712	0.998257	0.003550	0.996450	0.003550	0.996450	2.658650e+19	33.300000	36.200000	
7.290000	7.302693	0.998262	0.003539	0.996461	0.003539	0.996461	2.665959e+19	33.300000	36.200000	
7.300000	7.312675	0.998267	0.003529	0.996471	0.003529	0.996471	2.673278e+19	33.300000	36.200000	
7.310000	7.322657	0.998271	0.003519	0.996481	0.003519	0.996481	2.680607e+19	33.300000	36.200000	
7.320000	7.332640	0.998276	0.003510	0.996490	0.003510	0.996490	2.687946e+19	33.300000	36.200000	
7.330000	7.342622	0.998281	0.003500	0.996500	0.003500	0.996500	2.695295e+19	33.300000	36.200000	
7.340000	7.352604	0.998286	0.003490	0.996510	0.003490	0.996510	2.702655e+19	33.300000	36.200000	
7.350000	7.362586	0.998291	0.003480	0.996520	0.003480	0.996520	2.710024e+19	33.300000	36.200000	
7.360000	7.372568	0.998295	0.003470	0.996530	0.003470	0.996530	2.717403e+19	33.300000	36.200000	
7.370000	7.382551	0.998300	0.003460	0.996540	0.003460	0.996540	2.724792e+19	33.300000	36.200000	
7.380000	7.392533	0.998305	0.003451	0.996549	0.003451	0.996549	2.732192e+19	33.300000	36.200000	
7.390000	7.402516	0.998309	0.003441	0.996559	0.003441	0.996559	2.739601e+19	33.300000	36.200000	
7.400000	7.412498	0.998314	0.003432	0.996568	0.003432	0.996568	2.747020e+19	33.300000	36.200000	
7.410000	7.422481	0.998319	0.003422	0.996578	0.003422	0.996578	2.754450e+19	33.300000	36.200000	
7.420000	7.432463	0.998323	0.003412	0.996588	0.003412	0.996588	2.761889e+19	33.300000	36.200000	
7.430000	7.442446	0.998328	0.003403	0.996597	0.003403	0.996597	2.769339e+19	33.300000	36.200000	
7.440000	7.452429	0.998332	0.003394	0.996606	0.003394	0.996606	2.776798e+19	33.300000	36.200000	
7.450000	7.462411	0.998337	0.003384	0.996616	0.003384	0.996616	2.784268e+19	33.300000	36.200000	
7.460000	7.472394	0.998341	0.003375	0.996625	0.003375	0.996625	2.791747e+19	33.300000	36.200000	
7.470000	7.482377	0.998346	0.003365	0.996635	0.003365	0.996635	2.799237e+19	33.300000	36.200000	
7.480000	7.492360	0.998350	0.003356	0.996644	0.003356	0.996644	2.806736e+19	33.300000	36.200000	
7.490000	7.502343	0.998355	0.003347	0.996653	0.003347	0.996653	2.814246e+19	33.300000	36.200000	
7.500000	7.512326	0.998359	0.003338	0.996662	0.003338	0.996662	2.821766e+19	33.300000	36.200000	
7.510000	7.522309	0.998364	0.003329	0.996671	0.003329	0.996671	2.829295e+19	33.300000	36.200000	
7.520000	7.532292	0.998368	0.003319	0.996681	0.003319	0.996681	2.836835e+19	33.300000	36.200000	
7.530000	7.542275	0.998373	0.003310	0.996690	0.003310	0.996690	2.844385e+19	33.300000	36.200000	
7.540000	7.552258	0.998377	0.003301	0.996699	0.003301	0.996699	2.851945e+19	33.300000	36.200000	
7.550000	7.562241	0.998381	0.003292	0.996708	0.003292	0.996708	2.859515e+19	33.300000	36.200000	
7.560000	7.572225	0.998386	0.003283	0.996717	0.003283	0.996717	2.867095e+19	33.300000	36.200000	
7.570000	7.582208	0.998390	0.003274	0.996726	0.003274	0.996726	2.874684e+19	33.300000	36.200000	
7.580000	7.592191	0.998394	0.003265	0.996735	0.003265	0.996735	2.882284e+19	33.300000	36.200000	
7.590000	7.602175	0.998399	0.003257	0.996743	0.003257	0.996743	2.889894e+19	33.300000	36.200000	
7.600000	7.612158	0.998403	0.003248	0.996752	0.003248	0.996752	2.897514e+19	33.300000	36.200000	
7.610000	7.622142	0.998407	0.003239	0.996761	0.003239	0.996761	2.905144e+19	33.300000	36.200000	
7.620000	7.632125	0.998411	0.003230	0.996770	0.003230	0.996770	2.912785e+19	33.300000	36.200000	
7.630000	7.642109	0.998416	0.003221	0.996779	0.003221	0.996779	2.920435e+19	33.300000	36.200000	
7.640000	7.652092	0.998420	0.003213	0.996787	0.003213	0.996787	2.928095e+19	33.300000	36.200000	
7.650000	7.662076	0.998424	0.003204	0.996796	0.003204	0.996796	2.935765e+19	33.300000	36.200000	
7.660000	7.672060	0.998428	0.003195	0.996805	0.003195	0.996805	2.943445e+19	33.300000	36.200000	
7.670000	7.682043	0.998432	0.003187	0.996813	0.003187	0.996813	2.951135e+19	33.300000	36.200000	
7.680000	7.692027	0.998436	0.003178	0.996822	0.003178	0.996822	2.958836e+19	33.300000	36.200000	
7.690000	7.702011	0.998441	0.003170	0.996830	0.003170	0.996830	2.966546e+19	33.300000	36.200000	
7.700000	7.711995	0.998445	0.003161	0.996839	0.003161	0.996839	2.974266e+19	33.300000	36.200000	
7.710000	7.721979	0.998449	0.003153	0.996847	0.003153	0.996847	2.981997e+19	33.300000	36.200000	
7.720000	7.731963	0.998453	0.003144	0.996856	0.003144	0.996856	2.989737e+19	33.300000	36.200000	
7.730000	7.741947	0.998457	0.003136	0.996864	0.003136	0.996864	2.997488e+19	33.300000	36.200000	
7.740000	7.751931	0.998461	0.003128	0.996872	0.003128	0.996872	3.005248e+19	33.300000	36.200000	
7.750000	7.761915	0.998465	0.003119	0.996881	0.003119	0.996881	3.013019e+19	33.300000	36.200000	
7.760000	7.771899	0.998469	0.003111	0.996889	0.003111	0.996889	3.020799e+19	33.300000	36.200000	
7.770000	7.781883	0.998473	0.003103	0.996897	0.003103	0.996897	3.028590e+19	33.300000	36.200000	
7.780000	7.791868	0.998477	0.003095	0.996905	0.003095	0.996905	3.036390e+19	33.300000	36.200000	
7.790000	7.801852	0.998481	0.003086	0.996914	0.003086	0.996914	3.044201e+19	33.300000	36.200000	
7.800000	7.811836	0.998485	0.003078	0.996922	0.003078	0.996922	3.052022e+19	33.300000	36.200000	
7.810000	7.821821	0.998489	0.003070	0.996930	0.003070	0.996930	3.059852e+19	33.300000	36.200000	
7.820000	7.831805	0.998493	0.003062	0.996938	0.003062	0.996938	3.067693e+19	33.300000	36.200000	
7.830000	7.841790	0.998497	0.003054	0.996946	0.003054	0.996946	3.075544e+19	33.300000	36.200000	
7.840000	7.851774	0.998500	0.003046	0.996954	0.003046	0.996954	3.083405e+19	33.300000	36.200000	
7.850000	7.861759	0.998504	0.003038	0.996962	0.003038	0.996962	3.091276e+19	33.300000	36.200000	
7.860000	7.871743	0.998508	0.003030	0.996970	0.003030	0.996970	3.099157e+19	33.300000	36.200000	
7.870000	7.881728	0.998512	0.003022	0.996978	0.003022	0.996978	3.107047e+19	33.300000	36.200000	
7.880000	7.891712	0.998516	0.003014	0.996986	0.003014	0.996986	3.114948e+19	33.300000	36.200000	
7.890000	7.901697	0.998520	0.003006	0.996994	0.003006	0.996994	3.122859e+19	33.300000	36.200000	
7.900000	7.911682	0.998523	0.002999	0.997001	0.002999	0.997001	3.130780e+19	33.300000	36.200000	
7.910000	7.921667	0.998527	0.002991	0.997009	0.002991	0.997009	3.138711e+19	33.300000	36.200000	
7.920000	7.931651	0.998531	0.002983	0.997017	0.002983	0.997017	3.146652e+19	33.300000	36.200000	
7.930000	7.941636	0.998535	0.002975	0.997025	0.002975	0.997025	3.154604e+19	33.300000	36.200000	
7.940000	7.951621	0.998539	0.002968	0.997032	0.002968	0.997032	3.162565e+19	33.300000	36.200000	
7.950000	7.961606	0.998542	0.002960	0.997040	0.002960	0.997040	3.170536e+19	33.300000	36.200000	
7.960000	7.971591	0.998546	0.002952	0.997048	0.002952	0.997048	3.178517e+19	33.300000	36.200000	
7.970000	7.981576	0.998550	0.002945	0.997055	0.002945	0.997055	3.186508e+19	33.300000	36.200000	
7.980000	7.991561	0.998553	0.002937	0.997063	0.002937	0.997063	3.194510e+19	33.300000	36.200000	
7.990000	8.001546	0.998557	0.002930	0.997070	0.002930	0.997070	3.202521e+19	33.300000	36.200000	
8.000000	8.011531	0.998561	0.002922	0.997078	0.002922	0.997078	3.210542e+19	33.300000	36.200000	
8.010000	8.021517	0.998564	0.002915	0.997085	0.002915	0.997085	3.218574e+19	33.300000	36.200000	
8.020000	8.031502	0.998568	0.002907	0.997093	0.002907	0.997093	3.226615e+19	33.300000	36.200000	
8.030000	8.041487	0.998572	0.002900	0.997100	0.002900	0.997100	3.234666e+19	33.300000	36.200000	
8.040000	8.051472	0.998575	0.002892	0.997108	0.002892	0.997108	3.242728e+19	33.300000	36.200000	
8.050000	8.061458	0.998579	0.002885	0.997115	0.002885	0.997115	3.250799e+19	33.300000	36.200000	
8.060000	8.071443	0.998582	0.002877	0.997123	0.002877	0.997123	3.258881e+19	33.300000	36.200000	
8.070000	8.081428	0.998586	0.002870	0.997130	0.002870	0.997130	3.266973e+19	33.300000	36.200000	
8.080000	8.091414	0.998589	0.002863	0.997137	0.002863	0.997137	3.275074e+19	33.300000	36.200000	
8.090000	8.101399	0.998593	0.002856	0.997144	0.002856	0.997144	3.283186e+19	33.300000	36.200000	
8.100000	8.111385	0.998596	0.002848	0.997152	0.002848	0.997152	3.291307e+19	33.300000	36.200000	
8.110000	8.121370	0.998600	0.002841	0.997159	0.002841	0.997159	3.299439e+19	33.300000	36.200000	
8.120000	8.131356	0.998603	0.002834	0.997166	0.002834	0.997166	3.307581e+19	33.300000	36.200000	
8.130000	8.141342	0.998607	0.002827	0.997173	0.002827	0.997173	3.315733e+19	33.300000	36.200000	
8.140000	8.151327	0.998610	0.002820	0.997180	0.002820	0.997180	3.323894e+19	33.300000	36.200000	
8.150000	8.161313	0.998614	0.002813	0.997187	0.002813	0.997187	3.332066e+19	33.300000	36.200000	
8.160000	8.171299	0.998617	0.002805	0.997195	0.002805	0.997195	3.340248e+19	33.300000	36.200000	
8.170000	8.181284	0.998621	0.002798	0.997202	0.002798	0.997202	3.348440e+19	33.300000	36.200000	
8.180000	8.191270	0.998624	0.002791	0.997209	0.002791	0.997209	3.356642e+19	33.300000	36.200000	
8.190000	8.201256	0.998628	0.002784	0.997216	0.002784	0.997216	3.364854e+19	33.300000	36.200000	
8.200000	8.211242	0.998631	0.002777	0.997223	0.002777	0.997223	3.373076e+19	33.300000	36.200000	
8.210000	8.221228	0.998634	0.002770	0.997230	0.002770	0.997230	3.381308e+19	33.300000	36.200000	
8.220000	8.231214	0.998638	0.002764	0.997236	0.002764	0.997236	3.389550e+19	33.300000	36.200000	
8.230000	8.241200	0.998641	0.002757	0.997243	0.002757	0.997243	3.397802e+19	33.300000	36.200000	
8.240000	8.251186	0.998644	0.002750	0.997250	0.002750	0.997250	3.406064e+19	33.300000	36.200000	
8.250000	8.261172	0.998648	0.002743	0.997257	0.002743	0.997257	3.414336e+19	33.300000	36.200000	
8.260000	8.271158	0.998651	0.002736	0.997264	0.002736	0.997264	3.422619e+19	33.300000	36.200000	
8.270000	8.281144	0.998654	0.002729	0.997271	0.002729	0.997271	3.430911e+19	33.300000	36.200000	
8.280000	8.291130	0.998658	0.002723	0.997277	0.002723	0.997277	3.439213e+19	33.300000	36.200000	
8.290000	8.301116	0.998661	0.002716	0.997284	0.002716	0.997284	3.447525e+19	33.300000	36.200000	
8.300000	8.311103	0.998664	0.002709	0.997291	0.002709	0.997291	3.455848e+19	33.300000	36.200000	
8.310000	8.321089	0.998667	0.002702	0.997298	0.002702	0.997298	3.464180e+19	33.300000	36.200000	
8.320000	8.331075	0.998671	0.002696	0.997304	0.002696	0.997304	3.472523e+19	33.300000	36.200000	
8.330000	8.341062	0.998674	0.002689	0.997311	0.002689	0.997311	3.480875e+19	33.300000	36.200000	
8.340000	8.351048	0.998677	0.002683	0.997317	0.002683	0.997317	3.489237e+19	33.300000	36.200000	
8.350000	8.361034	0.998680	0.002676	0.997324	0.002676	0.997324	3.497610e+19	33.300000	36.200000	
8.360000	8.371021	0.998683	0.002669	0.997331	0.002669	0.997331	3.505992e+19	33.300000	36.200000	
8.370000	8.381007	0.998687	0.002663	0.997337	0.002663	0.997337	3.514385e+19	33.300000	36.200000	
8.380000	8.390994	0.998690	0.002656	0.997344	0.002656	0.997344	3.522788e+19	33.300000	36.200000	
8.390000	8.400980	0.998693	0.002650	0.997350	0.002650	0.997350	3.531200e+19	33.300000	36.200000	
8.400000	8.410967	0.998696	0.002643	0.997357	0.002643	0.997357	3.539623e+19	33.300000	36.200000	
8.410000	8.420954	0.998699	0.002637	0.997363	0.002637	0.997363	3.548056e+19	33.300000	36.200000	
8.420000	8.430940	0.998702	0.002630	0.997370	0.002630	0.997370	3.556498e+19	33.300000	36.200000	
8.430000	8.440927	0.998705	0.002624	0.997376	0.002624	0.997376	3.564951e+19	33.300000	36.200000	
8.440000	8.450914	0.998709	0.002618	0.997382	0.002618	0.997382	3.573414e+19	33.300000	36.200000	
8.450000	8.460900	0.998712	0.002611	0.997389	0.002611	0.997389	3.581887e+19	33.300000	36.200000	
8.460000	8.470887	0.998715	0.002605	0.997395	0.002605	0.997395	3.590370e+19	33.300000	36.200000	
8.470000	8.480874	0.998718	0.002599	0.997401	0.002599	0.997401	3.598862e+19	33.300000	36.200000	
8.480000	8.490861	0.998721	0.002592	0.997408	0.002592	0.997408	3.607365e+19	33.300000	36.200000	
8.490000	8.500848	0.998724	0.002586	0.997414	0.002586	0.997414	3.615878e+19	33.300000	36.200000	
8.500000	8.510834	0.998727	0.002580	0.997420	0.002580	0.997420	3.624401e+19	33.300000	36.200000	
8.510000	8.520821	0.998730	0.002574	0.997426	0.002574	0.997426	3.632934e+19	33.300000	36.200000	
8.520000	8.530808	0.998733	0.002568	0.997432	0.002568	0.997432	3.641477e+19	33.300000	36.200000	
8.530000	8.540795	0.998736	0.002561	0.997439	0.002561	0.997439	3.650030e+19	33.300000	36.200000	
8.540000	8.550782	0.998739	0.002555	0.997445	0.002555	0.997445	3.658594e+19	33.300000	36.200000	
8.550000	8.560769	0.998742	0.002549	0.997451	0.002549	0.997451	3.667167e+19	33.300000	36.200000	
8.560000	8.570756	0.998745	0.002543	0.997457	0.002543	0.997457	3.675750e+19	33.300000	36.200000	
8.570000	8.580744	0.998748	0.002537	0.997463	0.002537	0.997463	3.684343e+19	33.300000	36.200000	
8.580000	8.590731	0.998751	0.002531	0.997469	0.002531	0.997469	3.692946e+19	33.300000	36.200000	
8.590000	8.600718	0.998754	0.002525	0.997475	0.002525	0.997475	3.701560e+19	33.300000	36.200000	
8.600000	8.610705	0.998757	0.002519	0.997481	0.002519	0.997481	3.710183e+19	33.300000	36.200000	
8.610000	8.620692	0.998760	0.002513	0.997487	0.002513	0.997487	3.718816e+19	33.300000	36.200000	
8.620000	8.630680	0.998763	0.002507	0.997493	0.002507	0.997493	3.727460e+19	33.300000	36.200000	
8.630000	8.640667	0.998765	0.002501	0.997499	0.002501	0.997499	3.736113e+19	33.300000	36.200000	
8.640000	8.650654	0.998768	0.002495	0.997505	0.002495	0.997505	3.744777e+19	33.300000	36.200000	
8.650000	8.660642	0.998771	0.002489	0.997511	0.002489	0.997511	3.753450e+19	33.300000	36.200000	
8.660000	8.670629	0.998774	0.002483	0.997517	0.002483	0.997517	3.762134e+19	33.300000	36.200000	
8.670000	8.680617	0.998777	0.002477	0.997523	0.002477	0.997523	3.770827e+19	33.300000	36.200000	
8.680000	8.690604	0.998780	0.002471	0.997529	0.002471	0.997529	3.779531e+19	33.300000	36.200000	
8.690000	8.700591	0.998783	0.002466	0.997534	0.002466	0.997534	3.788244e+19	33.300000	36.200000	
8.700000	8.710579	0.998786	0.002460	0.997540	0.002460	0.997540	3.796968e+19	33.300000	36.200000	
8.710000	8.720567	0.998788	0.002454	0.997546	0.002454	0.997546	3.805702e+19	33.300000	36.200000	
8.720000	8.730554	0.998791	0.002448	0.997552	0.002448	0.997552	3.814445e+19	33.300000	36.200000	
8.730000	8.740542	0.998794	0.002443	0.997557	0.002443	0.997557	3.823199e+19	33.300000	36.200000	
8.740000	8.750529	0.998797	0.002437	0.997563	0.002437	0.997563	3.831963e+19	33.300000	36.200000	
8.750000	8.760517	0.998800	0.002431	0.997569	0.002431	0.997569	3.840737e+19	33.300000	36.200000	
8.760000	8.770505	0.998802	0.002425	0.997575	0.002425	0.997575	3.849520e+19	33.300000	36.200000	
8.770000	8.780492	0.998805	0.002420	0.997580	0.002420	0.997580	3.858314e+19	33.300000	36.200000	
8.780000	8.790480	0.998808	0.002414	0.997586	0.002414	0.997586	3.867118e+19	33.300000	36.200000	
8.790000	8.800468	0.998811	0.002409	0.997591	0.002409	0.997591	3.875932e+19	33.300000	36.200000	
8.800000	8.810456	0.998813	0.002403	0.997597	0.002403	0.997597	3.884756e+19	33.300000	36.200000	
8.810000	8.820444	0.998816	0.002397	0.997603	0.002397	0.997603	3.893590e+19	33.300000	36.200000	
8.820000	8.830431	0.998819	0.002392	0.997608	0.002392	0.997608	3.902434e+19	33.300000	36.200000	
8.830000	8.840419	0.998821	0.002386	0.997614	0.002386	0.997614	3.911288e+19	33.300000	36.200000	
8.840000	8.850407	0.998824	0.002381	0.997619	0.002381	0.997619	3.920152e+19	33.300000	36.200000	
8.850000	8.860395	0.998827	0.002375	0.997625	0.002375	0.997625	3.929027e+19	33.300000	36.200000	
8.860000	8.870383	0.998829	0.002370	0.997630	0.002370	0.997630	3.937911e+19	33.300000	36.200000	
8.870000	8.880371	0.998832	0.002364	0.997636	0.002364	0.997636	3.946805e+19	33.300000	36.200000	
8.880000	8.890359	0.998835	0.002359	0.997641	0.002359	0.997641	3.955709e+19	33.300000	36.200000	
8.890000	8.900347	0.998837	0.002353	0.997647	0.002353	0.997647	3.964623e+19	33.300000	36.200000	
8.900000	8.910335	0.998840	0.002348	0.997652	0.002348	0.997652	3.973548e+19	33.300000	36.200000	
8.910000	8.920324	0.998843	0.002343	0.997657	0.002343	0.997657	3.982482e+19	33.300000	36.200000	
8.920000	8.930312	0.998845	0.002337	0.997663	0.002337	0.997663	3.991426e+19	33.300000	36.200000	
8.930000	8.940300	0.998848	0.002332	0.997668	0.002332	0.997668	4.000381e+19	33.300000	36.200000	
8.940000	8.950288	0.998851	0.002327	0.997673	0.002327	0.997673	4.009345e+19	33.300000	36.200000	
8.950000	8.960276	0.998853	0.002321	0.997679	0.002321	0.997679	4.018320e+19	33.300000	36.200000	
8.960000	8.970265	0.998856	0.002316	0.997684	0.002316	0.997684	4.027304e+19	33.300000	36.200000	
8.970000	8.980253	0.998858	0.002311	0.997689	0.002311	0.997689	4.036299e+19	33.300000	36.200000	
8.980000	8.990241	0.998861	0.002305	0.997695	0.002305	0.997695	4.045303e+19	33.300000	36.200000	
8.990000	9.000229	0.998863	0.002300	0.997700	0.002300	0.997700	4.054318e+19	33.300000	36.200000	
9.000000	9.010218	0.998866	0.002295	0.997705	0.002295	0.997705	4.063343e+19	33.300000	36.200000	
9.010000	9.020206	0.998869	0.002290	0.997710	0.002290	0.997710	4.072377e+19	33.300000	36.200000	
9.020000	9.030195	0.998871	0.002285	0.997715	0.002285	0.997715	4.081422e+19	33.300000	36.200000	
9.030000	9.040183	0.998874	0.002279	0.997721	0.002279	0.997721	4.090477e+19	33.300000	36.200000	
9.040000	9.050172	0.998876	0.002274	0.997726	0.002274	0.997726	4.099541e+19	33.300000	36.200000	
9.050000	9.060160	0.998879	0.002269	0.997731	0.002269	0.997731	4.108616e+19	33.300000	36.200000	
9.060000	9.070149	0.998881	0.002264	0.997736	0.002264	0.997736	4.117701e+19	33.300000	36.200000	
9.070000	9.080137	0.998884	0.002259	0.997741	0.002259	0.997741	4.126796e+19	33.300000	36.200000	
9.080000	9.090126	0.998886	0.002254	0.997746	0.002254	0.997746	4.135901e+19	33.300000	36.200000	
9.090000	9.100114	0.998889	0.002249	0.997751	0.002249	0.997751	4.145016e+19	33.300000	36.200000	
9.100000	9.110103	0.998891	0.002244	0.997756	0.002244	0.997756	4.154141e+19	33.300000	36.200000	
9.110000	9.120092	0.998893	0.002239	0.997761	0.002239	0.997761	4.163276e+19	33.300000	36.200000	
9.120000	9.130080	0.998896	0.002234	0.997766	0.002234	0.997766	4.172421e+19	33.300000	36.200000	
9.130000	9.140069	0.998898	0.002229	0.997771	0.002229	0.997771	4.181576e+19	33.300000	36.200000	
9.140000	9.150058	0.998901	0.002224	0.997776	0.002224	0.997776	4.190741e+19	33.300000	36.200000	
9.150000	9.160046	0.998903	0.002219	0.997781	0.002219	0.997781	4.199916e+19	33.300000	36.200000	
9.160000	9.170035	0.998906	0.002214	0.997786	0.002214	0.997786	4.209101e+19	33.300000	36.200000	
9.170000	9.180024	0.998908	0.002209	0.997791	0.002209	0.997791	4.218296e+19	33.300000	36.200000	
9.180000	9.190013	0.998910	0.002204	0.997796	0.002204	0.997796	4.227502e+19	33.300000	36.200000	
9.190000	9.200002	0.998913	0.002199	0.997801	0.002199	0.997801	4.236717e+19	33.300000	36.200000	
9.200000	9.209991	0.998915	0.002194	0.997806	0.002194	0.997806	4.245942e+19	33.300000	36.200000	
9.210000	9.219979	0.998918	0.002189	0.997811	0.002189	0.997811	4.255177e+19	33.300000	36.200000	
9.220000	9.229968	0.998920	0.002184	0.997816	0.002184	0.997816	4.264423e+19	33.300000	36.200000	
9.230000	9.239957	0.998922	0.002180	0.997820	0.002180	0.997820	4.273678e+19	33.300000	36.200000	
9.240000	9.249946	0.998925	0.002175	0.997825	0.002175	0.997825	4.282944e+19	33.300000	36.200000	
9.250000	9.259935	0.998927	0.002170	0.997830	0.002170	0.997830	4.292219e+19	33.300000	36.200000	
9.260000	9.269924	0.998929	0.002165	0.997835	0.002165	0.997835	4.301505e+19	33.300000	36.200000	
9.270000	9.279913	0.998932	0.002160	0.997840	0.002160	0.997840	4.310800e+19	33.300000	36.200000	
9.280000	9.289903	0.998934	0.002156	0.997844	0.002156	0.997844	4.320106e+19	33.300000	36.200000	
9.290000	9.299892	0.998936	0.002151	0.997849	0.002151	0.997849	4.329421e+19	33.300000	36.200000	
9.300000	9.309881	0.998939	0.002146	0.997854	0.002146	0.997854	4.338747e+19	33.300000	36.200000	
9.310000	9.319870	0.998941	0.002142	0.997858	0.002142	0.997858	4.348083e+19	33.300000	36.200000	
9.320000	9.329859	0.998943	0.002137	0.997863	0.002137	0.997863	4.357428e+19	33.300000	36.200000	
9.330000	9.339848	0.998946	0.002132	0.997868	0.002132	0.997868	4.366784e+19	33.300000	36.200000	
9.340000	9.349838	0.998948	0.002127	0.997873	0.002127	0.997873	4.376150e+19	33.300000	36.200000	
9.350000	9.359827	0.998950	0.002123	0.997877	0.002123	0.997877	4.385526e+19	33.300000	36.200000	
9.360000	9.369816	0.998952	0.002118	0.997882	0.002118	0.997882	4.394911e+19	33.300000	36.200000	
9.370000	9.379805	0.998955	0.002114	0.997886	0.002114	0.997886	4.404307e+19	33.300000	36.200000	
9.380000	9.389795	0.998957	0.002109	0.997891	0.002109	0.997891	4.413713e+19	33.300000	36.200000	
9.390000	9.399784	0.998959	0.002104	0.997896	0.002104	0.997896	4.423129e+19	33.300000	36.200000	
9.400000	9.409773	0.998961	0.002100	0.997900	0.002100	0.997900	4.432555e+19	33.300000	36.200000	
9.410000	9.419763	0.998964	0.002095	0.997905	0.002095	0.997905	4.441991e+19	33.300000	36.200000	
9.420000	9.429752	0.998966	0.002091	0.997909	0.002091	0.997909	4.451437e+19	33.300000	36.200000	
9.430000	9.439742	0.998968	0.002086	0.997914	0.002086	0.997914	4.460893e+19	33.300000	36.200000	
9.440000	9.449731	0.998970	0.002082	0.997918	0.002082	0.997918	4.470359e+19	33.300000	36.200000	
9.450000	9.459721	0.998972	0.002077	0.997923	0.002077	0.997923	4.479835e+19	33.300000	36.200000	
9.460000	9.469710	0.998975	0.002073	0.997927	0.002073	0.997927	4.489321e+19	33.300000	36.200000	
9.470000	9.479700	0.998977	0.002068	0.997932	0.002068	0.997932	4.498818e+19	33.300000	36.200000	
9.480000	9.489689	0.998979	0.002064	0.997936	0.002064	0.997936	4.508324e+19	33.300000	36.200000	
9.490000	9.499679	0.998981	0.002059	0.997941	0.002059	0.997941	4.517840e+19	33.300000	36.200000	
9.500000	9.509668	0.998983	0.002055	0.997945	0.002055	0.997945	4.527366e+19	33.300000	36.200000	
9.510000	9.519658	0.998985	0.002051	0.997949	0.002051	0.997949	4.536903e+19	33.300000	36.200000	
9.520000	9.529648	0.998988	0.002046	0.997954	0.002046	0.997954	4.546449e+19	33.300000	36.200000	
9.530000	9.539637	0.998990	0.002042	0.997958	0.002042	0.997958	4.556005e+19	33.300000	36.200000	
9.540000	9.549627	0.998992	0.002037	0.997963	0.002037	0.997963	4.565572e+19	33.300000	36.200000	
9.550000	9.559617	0.998994	0.002033	0.997967	0.002033	0.997967	4.575148e+19	33.300000	36.200000	
9.560000	9.569606	0.998996	0.002029	0.997971	0.002029	0.997971	4.584735e+19	33.300000	36.200000	
9.570000	9.579596	0.998998	0.002024	0.997976	0.002024	0.997976	4.594331e+19	33.300000	36.200000	
9.580000	9.589586	0.999000	0.002020	0.997980	0.002020	0.997980	4.603938e+19	33.300000	36.200000	
9.590000	9.599576	0.999002	0.002016	0.997984	0.002016	0.997984	4.613554e+19	33.300000	36.200000	
9.600000	9.609565	0.999005	0.002012	0.997988	0.002012	0.997988	4.623181e+19	33.300000	36.200000	
9.610000	9.619555	0.999007	0.002007	0.997993	0.002007	0.997993	4.632818e+19	33.300000	36.200000	
9.620000	9.629545	0.999009	0.002003	0.997997	0.002003	0.997997	4.642464e+19	33.300000	36.200000	
9.630000	9.639535	0.999011	0.001999	0.998001	0.001999	0.998001	4.652121e+19	33.300000	36.200000	
9.640000	9.649525	0.999013	0.001995	0.998005	0.001995	0.998005	4.661788e+19	33.300000	36.200000	
9.650000	9.659515	0.999015	0.001990	0.998010	0.001990	0.998010	4.671464e+19	33.300000	36.200000	
9.660000	9.669505	0.999017	0.001986	0.998014	0.001986	0.998014	4.681151e+19	33.300000	36.200000	
9.670000	9.679495	0.999019	0.001982	0.998018	0.001982	0.998018	4.690848e+19	33.300000	36.200000	
9.680000	9.689485	0.999021	0.001978	0.998022	0.001978	0.998022	4.700555e+19	33.300000	36.200000	
9.690000	9.699475	0.999023	0.001974	0.998026	0.001974	0.998026	4.710272e+19	33.300000	36.200000	
9.700000	9.709465	0.999025	0.001970	0.998030	0.001970	0.998030	4.719999e+19	33.300000	36.200000	
9.710000	9.719455	0.999027	0.001965	0.998035	0.001965	0.998035	4.729736e+19	33.300000	36.200000	
9.720000	9.729445	0.999029	0.001961	0.998039	0.001961	0.998039	4.739483e+19	33.300000	36.200000	
9.730000	9.739435	0.999031	0.001957	0.998043	0.001957	0.998043	4.749240e+19	33.300000	36.200000	
9.740000	9.749425	0.999033	0.001953	0.998047	0.001953	0.998047	4.759007e+19	33.300000	36.200000	
9.750000	9.759415	0.999035	0.001949	0.998051	0.001949	0.998051	4.768784e+19	33.300000	36.200000	
9.760000	9.769405	0.999037	0.001945	0.998055	0.001945	0.998055	4.778571e+19	33.300000	36.200000	
9.770000	9.779396	0.999039	0.001941	0.998059	0.001941	0.998059	4.788368e+19	33.300000	36.200000	
9.780000	9.789386	0.999041	0.001937	0.998063	0.001937	0.998063	4.798176e+19	33.300000	36.200000	
9.790000	9.799376	0.999043	0.001933	0.998067	0.001933	0.998067	4.807993e+19	33.300000	36.200000	
9.800000	9.809366	0.999045	0.001929	0.998071	0.001929	0.998071	4.817820e+19	33.300000	36.200000	
9.810000	9.819357	0.999047	0.001925	0.998075	0.001925	0.998075	4.827657e+19	33.300000	36.200000	
9.820000	9.829347	0.999049	0.001921	0.998079	0.001921	0.998079	4.837505e+19	33.300000	36.200000	
9.830000	9.839337	0.999051	0.001917	0.998083	0.001917	0.998083	4.847362e+19	33.300000	36.200000	
9.840000	9.849327	0.999053	0.001913	0.998087	0.001913	0.998087	4.857229e+19	33.300000	36.200000	
9.850000	9.859318	0.999055	0.001909	0.998091	0.001909	0.998091	4.867107e+19	33.300000	36.200000	
9.860000	9.869308	0.999057	0.001905	0.998095	0.001905	0.998095	4.876994e+19	33.300000	36.200000	
9.870000	9.879299	0.999059	0.001901	0.998099	0.001901	0.998099	4.886892e+19	33.300000	36.200000	
9.880000	9.889289	0.999061	0.001897	0.998103	0.001897	0.998103	4.896799e+19	33.300000	36.200000	
9.890000	9.899279	0.999063	0.001893	0.998107	0.001893	0.998107	4.906717e+19	33.300000	36.200000	
9.900000	9.909270	0.999065	0.001889	0.998111	0.001889	0.998111	4.916645e+19	33.300000	36.200000	
9.910000	9.919260	0.999066	0.001885	0.998115	0.001885	0.998115	4.926582e+19	33.300000	36.200000	
9.920000	9.929251	0.999068	0.001882	0.998118	0.001882	0.998118	4.936530e+19	33.300000	36.200000	
9.930000	9.939241	0.999070	0.001878	0.998122	0.001878	0.998122	4.946488e+19	33.300000	36.200000	
9.940000	9.949232	0.999072	0.001874	0.998126	0.001874	0.998126	4.956455e+19	33.300000	36.200000	
9.950000	9.959222	0.999074	0.001870	0.998130	0.001870	0.998130	4.966433e+19	33.300000	36.200000	
9.960000	9.969213	0.999076	0.001866	0.998134	0.001866	0.998134	4.976421e+19	33.300000	36.200000	
9.970000	9.979203	0.999078	0.001862	0.998138	0.001862	0.998138	4.986419e+19	33.300000	36.200000	
9.980000	9.989194	0.999080	0.001859	0.998141	0.001859	0.998141	4.996426e+19	33.300000	36.200000	
9.990000	9.999185	0.999081	0.001855	0.998145	0.001855	0.998145	5.006444e+19	33.300000	36.200000	
10.000000	10.009175	0.999083	0.001851	0.998149	0.001851	0.998149	5.016472e+19	33.300000	36.200000	
10.010000	10.019166	0.999085	0.001847	0.998153	0.001847	0.998153	5.026510e+19	33.300000	36.200000	
10.020000	10.029157	0.999087	0.001843	0.998157	0.001843	0.998157	5.036558e+19	33.300000	36.200000	
10.030000	10.039147	0.999089	0.001840	0.998160	0.001840	0.998160	5.046616e+19	33.300000	36.200000	
10.040000	10.049138	0.999091	0.001836	0.998164	0.001836	0.998164	5.056684e+19	33.300000	36.200000	
10.050000	10.059129	0.999092	0.001832	0.998168	0.001832	0.998168	5.066762e+19	33.300000	36.200000	
10.060000	10.069120	0.999094	0.001829	0.998171	0.001829	0.998171	5.076851e+19	33.300000	36.200000	
10.070000	10.079110	0.999096	0.001825	0.998175	0.001825	0.998175	5.086949e+19	33.300000	36.200000	
10.080000	10.089101	0.999098	0.001821	0.998179	0.001821	0.998179	5.097057e+19	33.300000	36.200000	
10.090000	10.099092	0.999100	0.001818	0.998182	0.001818	0.998182	5.107175e+19	33.300000	36.200000	
10.100000	10.109083	0.999102	0.001814	0.998186	0.001814	0.998186	5.117303e+19	33.300000	36.200000	
10.110000	10.119074	0.999103	0.001810	0.998190	0.001810	0.998190	5.127442e+19	33.300000	36.200000	
10.120000	10.129064	0.999105	0.001807	0.998193	0.001807	0.998193	5.137590e+19	33.300000	36.200000	
10.130000	10.139055	0.999107	0.001803	0.998197	0.001803	0.998197	5.147748e+19	33.300000	36.200000	
10.140000	10.149046	0.999109	0.001799	0.998201	0.001799	0.998201	5.157917e+19	33.300000	36.200000	
10.150000	10.159037	0.999110	0.001796	0.998204	0.001796	0.998204	5.168095e+19	33.300000	36.200000	
10.160000	10.169028	0.999112	0.001792	0.998208	0.001792	0.998208	5.178284e+19	33.300000	36.200000	
10.170000	10.179019	0.999114	0.001789	0.998211	0.001789	0.998211	5.188482e+19	33.300000	36.200000	
10.180000	10.189010	0.999116	0.001785	0.998215	0.001785	0.998215	5.198691e+19	33.300000	36.200000	
10.190000	10.199001	0.999117	0.001781	0.998219	0.001781	0.998219	5.208909e+19	33.300000	36.200000	
10.200000	10.208992	0.999119	0.001778	0.998222	0.001778	0.998222	5.219138e+19	33.300000	36.200000	
10.210000	10.218983	0.999121	0.001774	0.998226	0.001774	0.998226	5.229376e+19	33.300000	36.200000	
10.220000	10.228974	0.999123	0.001771	0.998229	0.001771	0.998229	5.239625e+19	33.300000	36.200000	
10.230000	10.238965	0.999124	0.001767	0.998233	0.001767	0.998233	5.249884e+19	33.300000	36.200000	
10.240000	10.248956	0.999126	0.001764	0.998236	0.001764	0.998236	5.260152e+19	33.300000	36.200000	
10.250000	10.258947	0.999128	0.001760	0.998240	0.001760	0.998240	5.270431e+19	33.300000	36.200000	
10.260000	10.268939	0.999130	0.001757	0.998243	0.001757	0.998243	5.280720e+19	33.300000	36.200000	
10.270000	10.278930	0.999131	0.001753	0.998247	0.001753	0.998247	5.291019e+19	33.300000	36.200000	
10.280000	10.288921	0.999133	0.001750	0.998250	0.001750	0.998250	5.301328e+19	33.300000	36.200000	
10.290000	10.298912	0.999135	0.001746	0.998254	0.001746	0.998254	5.311647e+19	33.300000	36.200000	
10.300000	10.308903	0.999136	0.001743	0.998257	0.001743	0.998257	5.321975e+19	33.300000	36.200000	
10.310000	10.318894	0.999138	0.001739	0.998261	0.001739	0.998261	5.332314e+19	33.300000	36.200000	
10.320000	10.328886	0.999140	0.001736	0.998264	0.001736	0.998264	5.342663e+19	33.300000	36.200000	
10.330000	10.338877	0.999141	0.001733	0.998267	0.001733	0.998267	5.353022e+19	33.300000	36.200000	
10.340000	10.348868	0.999143	0.001729	0.998271	0.001729	0.998271	5.363391e+19	33.300000	36.200000	
10.350000	10.358859	0.999145	0.001726	0.998274	0.001726	0.998274	5.373771e+19	33.300000	36.200000	
10.360000	10.368851	0.999146	0.001722	0.998278	0.001722	0.998278	5.384160e+19	33.300000	36.200000	
10.370000	10.378842	0.999148	0.001719	0.998281	0.001719	0.998281	5.394559e+19	33.300000	36.200000	
10.380000	10.388833	0.999150	0.001716	0.998284	0.001716	0.998284	5.404968e+19	33.300000	36.200000	
10.390000	10.398825	0.999151	0.001712	0.998288	0.001712	0.998288	5.415387e+19	33.300000	36.200000	
10.400000	10.408816	0.999153	0.001709	0.998291	0.001709	0.998291	5.425816e+19	33.300000	36.200000	
10.410000	10.418807	0.999155	0.001706	0.998294	0.001706	0.998294	5.436256e+19	33.300000	36.200000	
10.420000	10.428799	0.999156	0.001702	0.998298	0.001702	0.998298	5.446705e+19	33.300000	36.200000	
10.430000	10.438790	0.999158	0.001699	0.998301	0.001699	0.998301	5.457164e+19	33.300000	36.200000	
10.440000	10.448782	0.999160	0.001696	0.998304	0.001696	0.998304	5.467634e+19	33.300000	36.200000	
10.450000	10.458773	0.999161	0.001692	0.998308	0.001692	0.998308	5.478113e+19	33.300000	36.200000	
10.460000	10.468765	0.999163	0.001689	0.998311	0.001689	0.998311	5.488603e+19	33.300000	36.200000	
10.470000	10.478756	0.999164	0.001686	0.998314	0.001686	0.998314	5.499102e+19	33.300000	36.200000	
10.480000	10.488748	0.999166	0.001683	0.998317	0.001683	0.998317	5.509612e+19	33.300000	36.200000	
10.490000	10.498739	0.999168	0.001679	0.998321	0.001679	0.998321	5.520131e+19	33.300000	36.200000	
10.500000	10.508731	0.999169	0.001676	0.998324	0.001676	0.998324	5.530661e+19	33.300000	36.200000	
10.510000	10.518722	0.999171	0.001673	0.998327	0.001673	0.998327	5.541200e+19	33.300000	36.200000	
10.520000	10.528714	0.999172	0.001670	0.998330	0.001670	0.998330	5.551750e+19	33.300000	36.200000	
10.530000	10.538705	0.999174	0.001666	0.998334	0.001666	0.998334	5.562310e+19	33.300000	36.200000	
10.540000	10.548697	0.999176	0.001663	0.998337	0.001663	0.998337	5.572879e+19	33.300000	36.200000	
10.550000	10.558689	0.999177	0.001660	0.998340	0.001660	0.998340	5.583459e+19	33.300000	36.200000	
10.560000	10.568680	0.999179	0.001657	0.998343	0.001657	0.998343	5.594049e+19	33.300000	36.200000	
10.570000	10.578672	0.999180	0.001654	0.998346	0.001654	0.998346	5.604649e+19	33.300000	36.200000	
10.580000	10.588663	0.999182	0.001650	0.998350	0.001650	0.998350	5.615259e+19	33.300000	36.200000	
10.590000	10.598655	0.999183	0.001647	0.998353	0.001647	0.998353	5.625878e+19	33.300000	36.200000	
10.600000	10.608647	0.999185	0.001644	0.998356	0.001644	0.998356	5.636508e+19	33.300000	36.200000	
10.610000	10.618639	0.999186	0.001641	0.998359	0.001641	0.998359	5.647148e+19	33.300000	36.200000	
10.620000	10.628630	0.999188	0.001638	0.998362	0.001638	0.998362	5.657798e+19	33.300000	36.200000	
10.630000	10.638622	0.999190	0.001635	0.998365	0.001635	0.998365	5.668458e+19	33.300000	36.200000	
10.640000	10.648614	0.999191	0.001632	0.998368	0.001632	0.998368	5.679128e+19	33.300000	36.200000	
10.650000	10.658606	0.999193	0.001628	0.998372	0.001628	0.998372	5.689808e+19	33.300000	36.200000	
10.660000	10.668597	0.999194	0.001625	0.998375	0.001625	0.998375	5.700498e+19	33.300000	36.200000	
10.670000	10.678589	0.999196	0.001622	0.998378	0.001622	0.998378	5.711199e+19	33.300000	36.200000	
10.680000	10.688581	0.999197	0.001619	0.998381	0.001619	0.998381	5.721909e+19	33.300000	36.200000	
10.690000	10.698573	0.999199	0.001616	0.998384	0.001616	0.998384	5.732629e+19	33.300000	36.200000	
10.700000	10.708565	0.999200	0.001613	0.998387	0.001613	0.998387	5.743359e+19	33.300000	36.200000	
10.710000	10.718557	0.999202	0.001610	0.998390	0.001610	0.998390	5.754099e+19	33.300000	36.200000	
10.720000	10.728548	0.999203	0.001607	0.998393	0.001607	0.998393	5.764850e+19	33.300000	36.200000	
10.730000	10.738540	0.999205	0.001604	0.998396	0.001604	0.998396	5.775610e+19	33.300000	36.200000	
10.740000	10.748532	0.999206	0.001601	0.998399	0.001601	0.998399	5.786380e+19	33.300000	36.200000	
10.750000	10.758524	0.999208	0.001598	0.998402	0.001598	0.998402	5.797161e+19	33.300000	36.200000	
10.760000	10.768516	0.999209	0.001595	0.998405	0.001595	0.998405	5.807951e+19	33.300000	36.200000	
10.770000	10.778508	0.999211	0.001592	0.998408	0.001592	0.998408	5.818752e+19	33.300000	36.200000	
10.780000	10.788500	0.999212	0.001589	0.998411	0.001589	0.998411	5.829562e+19	33.300000	36.200000	
10.790000	10.798492	0.999214	0.001586	0.998414	0.001586	0.998414	5.840383e+19	33.300000	36.200000	
10.800000	10.808484	0.999215	0.001583	0.998417	0.001583	0.998417	5.851213e+19	33.300000	36.200000	
10.810000	10.818476	0.999217	0.001580	0.998420	0.001580	0.998420	5.862054e+19	33.300000	36.200000	
10.820000	10.828468	0.999218	0.001577	0.998423	0.001577	0.998423	5.872905e+19	33.300000	36.200000	
10.830000	10.838460	0.999219	0.001574	0.998426	0.001574	0.998426	5.883765e+19	33.300000	36.200000	
10.840000	10.848452	0.999221	0.001571	0.998429	0.001571	0.998429	5.894636e+19	33.300000	36.200000	
10.850000	10.858444	0.999222	0.001568	0.998432	0.001568	0.998432	5.905517e+19	33.300000	36.200000	
10.860000	10.868436	0.999224	0.001565	0.998435	0.001565	0.998435	5.916407e+19	33.300000	36.200000	
10.870000	10.878429	0.999225	0.001562	0.998438	0.001562	0.998438	5.927308e+19	33.300000	36.200000	
10.880000	10.888421	0.999227	0.001559	0.998441	0.001559	0.998441	5.938219e+19	33.300000	36.200000	
10.890000	10.898413	0.999228	0.001556	0.998444	0.001556	0.998444	5.949140e+19	33.300000	36.200000	
10.900000	10.908405	0.999229	0.001553	0.998447	0.001553	0.998447	5.960071e+19	33.300000	36.200000	
10.910000	10.918397	0.999231	0.001551	0.998449	0.001551	0.998449	5.971012e+19	33.300000	36.200000	
10.920000	10.928389	0.999232	0.001548	0.998452	0.001548	0.998452	5.981963e+19	33.300000	36.200000	
10.930000	10.938382	0.999234	0.001545	0.998455	0.001545	0.998455	5.992924e+19	33.300000	36.200000	
10.940000	10.948374	0.999235	0.001542	0.998458	0.001542	0.998458	6.003895e+19	33.300000	36.200000	
10.950000	10.958366	0.999237	0.001539	0.998461	0.001539	0.998461	6.014876e+19	33.300000	36.200000	
10.960000	10.968358	0.999238	0.001536	0.998464	0.001536	0.998464	6.025867e+19	33.300000	36.200000	
10.970000	10.978350	0.999239	0.001533	0.998467	0.001533	0.998467	6.036868e+19	33.300000	36.200000	
10.980000	10.988343	0.999241	0.001531	0.998469	0.001531	0.998469	6.047879e+19	33.300000	36.200000	
10.990000	10.998335	0.999242	0.001528	0.998472	0.001528	0.998472	6.058900e+19	33.300000	36.200000	
11.000000	11.008327	0.999244	0.001525	0.998475	0.001525	0.998475	6.069932e+19	33.300000	36.200000	
11.010000	11.018320	0.999245	0.001522	0.998478	0.001522	0.998478	6.080973e+19	33.300000	36.200000	
11.020000	11.028312	0.999246	0.001519	0.998481	0.001519	0.998481	6.092024e+19	33.300000	36.200000	
11.030000	11.038304	0.999248	0.001516	0.998484	0.001516	0.998484	6.103085e+19	33.300000	36.200000	
11.040000	11.048297	0.999249	0.001514	0.998486	0.001514	0.998486	6.114157e+19	33.300000	36.200000	
11.050000	11.058289	0.999250	0.001511	0.998489	0.001511	0.998489	6.125238e+19	33.300000	36.200000	
11.060000	11.068281	0.999252	0.001508	0.998492	0.001508	0.998492	6.136330e+19	33.300000	36.200000	
11.070000	11.078274	0.999253	0.001505	0.998495	0.001505	0.998495	6.147431e+19	33.300000	36.200000	
11.080000	11.088266	0.999255	0.001503	0.998497	0.001503	0.998497	6.158542e+19	33.300000	36.200000	
11.090000	11.098259	0.999256	0.001500	0.998500	0.001500	0.998500	6.169664e+19	33.300000	36.200000	
11.100000	11.108251	0.999257	0.001497	0.998503	0.001497	0.998503	6.180796e+19	33.300000	36.200000	
11.110000	11.118244	0.999259	0.001494	0.998506	0.001494	0.998506	6.191937e+19	33.300000	36.200000	
11.120000	11.128236	0.999260	0.001492	0.998508	0.001492	0.998508	6.203089e+19	33.300000	36.200000	
11.130000	11.138229	0.999261	0.001489	0.998511	0.001489	0.998511	6.214250e+19	33.300000	36.200000	
11.140000	11.148221	0.999263	0.001486	0.998514	0.001486	0.998514	6.225422e+19	33.300000	36.200000	
11.150000	11.158214	0.999264	0.001484	0.998516	0.001484	0.998516	6.236604e+19	33.300000	36.200000	
11.160000	11.168206	0.999265	0.001481	0.998519	0.001481	0.998519	6.247796e+19	33.300000	36.200000	
11.170000	11.178199	0.999267	0.001478	0.998522	0.001478	0.998522	6.258997e+19	33.300000	36.200000	
11.180000	11.188191	0.999268	0.001475	0.998525	0.001475	0.998525	6.270209e+19	33.300000	36.200000	
11.190000	11.198184	0.999269	0.001473	0.998527	0.001473	0.998527	6.281431e+19	33.300000	36.200000	
11.200000	11.208176	0.999271	0.001470	0.998530	0.001470	0.998530	6.292663e+19	33.300000	36.200000	
11.210000	11.218169	0.999272	0.001467	0.998533	0.001467	0.998533	6.303905e+19	33.300000	36.200000	
11.220000	11.228162	0.999273	0.001465	0.998535	0.001465	0.998535	6.315157e+19	33.300000	36.200000	
11.230000	11.238154	0.999274	0.001462	0.998538	0.001462	0.998538	6.326419e+19	33.300000	36.200000	
11.240000	11.248147	0.999276	0.001460	0.998540	0.001460	0.998540	6.337691e+19	33.300000	36.200000	
11.250000	11.258139	0.999277	0.001457	0.998543	0.001457	0.998543	6.348973e+19	33.300000	36.200000	
11.260000	11.268132	0.999278	0.001454	0.998546	0.001454	0.998546	6.360265e+19	33.300000	36.200000	
11.270000	11.278125	0.999280	0.001452	0.998548	0.001452	0.998548	6.371567e+19	33.300000	36.200000	
11.280000	11.288117	0.999281	0.001449	0.998551	0.001449	0.998551	6.382879e+19	33.300000	36.200000	
11.290000	11.298110	0.999282	0.001446	0.998554	0.001446	0.998554	6.394201e+19	33.300000	36.200000	
11.300000	11.308103	0.999283	0.001444	0.998556	0.001444	0.998556	6.405534e+19	33.300000	36.200000	
11.310000	11.318096	0.999285	0.001441	0.998559	0.001441	0.998559	6.416876e+19	33.300000	36.200000	
11.320000	11.328088	0.999286	0.001439	0.998561	0.001439	0.998561	6.428228e+19	33.300000	36.200000	
11.330000	11.338081	0.999287	0.001436	0.998564	0.001436	0.998564	6.439590e+19	33.300000	36.200000	
11.340000	11.348074	0.999289	0.001434	0.998566	0.001434	0.998566	6.450963e+19	33.300000	36.200000	
11.350000	11.358067	0.999290	0.001431	0.998569	0.001431	0.998569	6.462345e+19	33.300000	36.200000	
11.360000	11.368059	0.999291	0.001428	0.998572	0.001428	0.998572	6.473737e+19	33.300000	36.200000	
11.370000	11.378052	0.999292	0.001426	0.998574	0.001426	0.998574	6.485140e+19	33.300000	36.200000	
11.380000	11.388045	0.999294	0.001423	0.998577	0.001423	0.998577	6.496552e+19	33.300000	36.200000	
11.390000	11.398038	0.999295	0.001421	0.998579	0.001421	0.998579	6.507975e+19	33.300000	36.200000	
11.400000	11.408031	0.999296	0.001418	0.998582	0.001418	0.998582	6.519407e+19	33.300000	36.200000	
11.410000	11.418024	0.999297	0.001416	0.998584	0.001416	0.998584	6.530850e+19	33.300000	36.200000	
11.420000	11.428016	0.999299	0.001413	0.998587	0.001413	0.998587	6.542303e+19	33.300000	36.200000	
11.430000	11.438009	0.999300	0.001411	0.998589	0.001411	0.998589	6.553765e+19	33.300000	36.200000	
11.440000	11.448002	0.999301	0.001408	0.998592	0.001408	0.998592	6.565238e+19	33.300000	36.200000	
11.450000	11.457995	0.999302	0.001406	0.998594	0.001406	0.998594	6.576721e+19	33.300000	36.200000	
11.460000	11.467988	0.999303	0.001403	0.998597	0.001403	0.998597	6.588213e+19	33.300000	36.200000	
11.470000	11.477981	0.999305	0.001401	0.998599	0.001401	0.998599	6.599716e+19	33.300000	36.200000	
11.480000	11.487974	0.999306	0.001398	0.998602	0.001398	0.998602	6.611229e+19	33.300000	36.200000	
11.490000	11.497967	0.999307	0.001396	0.998604	0.001396	0.998604	6.622752e+19	33.300000	36.200000	
11.500000	11.507960	0.999308	0.001393	0.998607	0.001393	0.998607	6.634285e+19	33.300000	36.200000	
11.510000	11.517953	0.999310	0.001391	0.998609	0.001391	0.998609	6.645828e+19	33.300000	36.200000	
11.520000	11.527946	0.999311	0.001389	0.998611	0.001389	0.998611	6.657380e+19	33.300000	36.200000	
11.530000	11.537939	0.999312	0.001386	0.998614	0.001386	0.998614	6.668943e+19	33.300000	36.200000	
11.540000	11.547932	0.999313	0.001384	0.998616	0.001384	0.998616	6.680516e+19	33.300000	36.200000	
11.550000	11.557925	0.999314	0.001381	0.998619	0.001381	0.998619	6.692099e+19	33.300000	36.200000	
11.560000	11.567918	0.999316	0.001379	0.998621	0.001379	0.998621	6.703693e+19	33.300000	36.200000	
11.570000	11.577911	0.999317	0.001376	0.998624	0.001376	0.998624	6.715296e+19	33.300000	36.200000	
11.580000	11.587904	0.999318	0.001374	0.998626	0.001374	0.998626	6.726909e+19	33.300000	36.200000	
11.590000	11.597897	0.999319	0.001372	0.998628	0.001372	0.998628	6.738532e+19	33.300000	36.200000	
11.600000	11.607890	0.999320	0.001369	0.998631	0.001369	0.998631	6.750165e+19	33.300000	36.200000	
11.610000	11.617883	0.999321	0.001367	0.998633	0.001367	0.998633	6.761808e+19	33.300000	36.200000	
11.620000	11.627877	0.999323	0.001364	0.998636	0.001364	0.998636	6.773462e+19	33.300000	36.200000	
11.630000	11.637870	0.999324	0.001362	0.998638	0.001362	0.998638	6.785125e+19	33.300000	36.200000	
11.640000	11.647863	0.999325	0.001360	0.998640	0.001360	0.998640	6.796798e+19	33.300000	36.200000	
11.650000	11.657856	0.999326	0.001357	0.998643	0.001357	0.998643	6.808482e+19	33.300000	36.200000	
11.660000	11.667849	0.999327	0.001355	0.998645	0.001355	0.998645	6.820175e+19	33.300000	36.200000	
11.670000	11.677842	0.999328	0.001353	0.998647	0.001353	0.998647	6.831878e+19	33.300000	36.200000	
11.680000	11.687836	0.999330	0.001350	0.998650	0.001350	0.998650	6.843592e+19	33.300000	36.200000	
11.690000	11.697829	0.999331	0.001348	0.998652	0.001348	0.998652	6.855315e+19	33.300000	36.200000	
11.700000	11.707822	0.999332	0.001346	0.998654	0.001346	0.998654	6.867049e+19	33.300000	36.200000	
11.710000	11.717815	0.999333	0.001343	0.998657	0.001343	0.998657	6.878793e+19	33.300000	36.200000	
11.720000	11.727808	0.999334	0.001341	0.998659	0.001341	0.998659	6.890546e+19	33.300000	36.200000	
11.730000	11.737802	0.999335	0.001339	0.998661	0.001339	0.998661	6.902310e+19	33.300000	36.200000	
11.740000	11.747795	0.999336	0.001336	0.998664	0.001336	0.998664	6.914083e+19	33.300000	36.200000	
11.750000	11.757788	0.999338	0.001334	0.998666	0.001334	0.998666	6.925867e+19	33.300000	36.200000	
11.760000	11.767781	0.999339	0.001332	0.998668	0.001332	0.998668	6.937661e+19	33.300000	36.200000	
11.770000	11.777775	0.999340	0.001329	0.998671	0.001329	0.998671	6.949465e+19	33.300000	36.200000	
11.780000	11.787768	0.999341	0.001327	0.998673	0.001327	0.998673	6.961278e+19	33.300000	36.200000	
11.790000	11.797761	0.999342	0.001325	0.998675	0.001325	0.998675	6.973102e+19	33.300000	36.200000	
11.800000	11.807755	0.999343	0.001323	0.998677	0.001323	0.998677	6.984936e+19	33.300000	36.200000	
11.810000	11.817748	0.999344	0.001320	0.998680	0.001320	0.998680	6.996780e+19	33.300000	36.200000	
11.820000	11.827741	0.999345	0.001318	0.998682	0.001318	0.998682	7.008634e+19	33.300000	36.200000	
11.830000	11.837735	0.999347	0.001316	0.998684	0.001316	0.998684	7.020498e+19	33.300000	36.200000	
11.840000	11.847728	0.999348	0.001314	0.998686	0.001314	0.998686	7.032372e+19	33.300000	36.200000	
11.850000	11.857722	0.999349	0.001311	0.998689	0.001311	0.998689	7.044256e+19	33.300000	36.200000	
11.860000	11.867715	0.999350	0.001309	0.998691	0.001309	0.998691	7.056150e+19	33.300000	36.200000	
11.870000	11.877708	0.999351	0.001307	0.998693	0.001307	0.998693	7.068054e+19	33.300000	36.200000	
11.880000	11.887702	0.999352	0.001305	0.998695	0.001305	0.998695	7.079968e+19	33.300000	36.200000	
11.890000	11.897695	0.999353	0.001302	0.998698	0.001302	0.998698	7.091892e+19	33.300000	36.200000	
11.900000	11.907689	0.999354	0.001300	0.998700	0.001300	0.998700	7.103826e+19	33.300000	36.200000	
11.910000	11.917682	0.999355	0.001298	0.998702	0.001298	0.998702	7.115771e+19	33.300000	36.200000	
11.920000	11.927676	0.999356	0.001296	0.998704	0.001296	0.998704	7.127725e+19	33.300000	36.200000	
11.930000	11.937669	0.999358	0.001294	0.998706	0.001294	0.998706	7.139689e+19	33.300000	36.200000	
11.940000	11.947663	0.999359	0.001291	0.998709	0.001291	0.998709	7.151664e+19	33.300000	36.200000	
11.950000	11.957656	0.999360	0.001289	0.998711	0.001289	0.998711	7.163648e+19	33.300000	36.200000	
11.960000	11.967650	0.999361	0.001287	0.998713	0.001287	0.998713	7.175642e+19	33.300000	36.200000	
11.970000	11.977643	0.999362	0.001285	0.998715	0.001285	0.998715	7.187647e+19	33.300000	36.200000	
11.980000	11.987637	0.999363	0.001283	0.998717	0.001283	0.998717	7.199661e+19	33.300000	36.200000	
11.990000	11.997630	0.999364	0.001280	0.998720	0.001280	0.998720	7.211686e+19	33.300000	36.200000	
12.000000	12.007624	0.999365	0.001278	0.998722	0.001278	0.998722	7.223720e+19	33.300000	36.200000	
12.010000	12.017617	0.999366	0.001276	0.998724	0.001276	0.998724	7.235765e+19	33.300000	36.200000	
12.020000	12.027611	0.999367	0.001274	0.998726	0.001274	0.998726	7.247819e+19	33.300000	36.200000	
12.030000	12.037604	0.999368	0.001272	0.998728	0.001272	0.998728	7.259884e+19	33.300000	36.200000	
12.040000	12.047598	0.999369	0.001270	0.998730	0.001270	0.998730	7.271959e+19	33.300000	36.200000	
12.050000	12.057592	0.999370	0.001268	0.998732	0.001268	0.998732	7.284043e+19	33.300000	36.200000	
12.060000	12.067585	0.999371	0.001265	0.998735	0.001265	0.998735	7.296138e+19	33.300000	36.200000	
12.070000	12.077579	0.999372	0.001263	0.998737	0.001263	0.998737	7.308243e+19	33.300000	36.200000	
12.080000	12.087573	0.999374	0.001261	0.998739	0.001261	0.998739	7.320357e+19	33.300000	36.200000	
12.090000	12.097566	0.999375	0.001259	0.998741	0.001259	0.998741	7.332482e+19	33.300000	36.200000	
12.100000	12.107560	0.999376	0.001257	0.998743	0.001257	0.998743	7.344617e+19	33.300000	36.200000	
12.110000	12.117554	0.999377	0.001255	0.998745	0.001255	0.998745	7.356762e+19	33.300000	36.200000	
12.120000	12.127547	0.999378	0.001253	0.998747	0.001253	0.998747	7.368917e+19	33.300000	36.200000	
12.130000	12.137541	0.999379	0.001251	0.998749	0.001251	0.998749	7.381082e+19	33.300000	36.200000	
12.140000	12.147535	0.999380	0.001249	0.998751	0.001249	0.998751	7.393257e+19	33.300000	36.200000	
12.150000	12.157528	0.999381	0.001247	0.998753	0.001247	0.998753	7.405442e+19	33.300000	36.200000	
12.160000	12.167522	0.999382	0.001244	0.998756	0.001244	0.998756	7.417637e+19	33.300000	36.200000	
12.170000	12.177516	0.999383	0.001242	0.998758	0.001242	0.998758	7.429842e+19	33.300000	36.200000	
12.180000	12.187510	0.999384	0.001240	0.998760	0.001240	0.998760	7.442057e+19	33.300000	36.200000	
12.190000	12.197503	0.999385	0.001238	0.998762	0.001238	0.998762	7.454282e+19	33.300000	36.200000	
12.200000	12.207497	0.999386	0.001236	0.998764	0.001236	0.998764	7.466517e+19	33.300000	36.200000	
12.210000	12.217491	0.999387	0.001234	0.998766	0.001234	0.998766	7.478763e+19	33.300000	36.200000	
12.220000	12.227485	0.999388	0.001232	0.998768	0.001232	0.998768	7.491018e+19	33.300000	36.200000	
12.230000	12.237479	0.999389	0.001230	0.998770	0.001230	0.998770	7.503283e+19	33.300000	36.200000	
12.240000	12.247472	0.999390	0.001228	0.998772	0.001228	0.998772	7.515558e+19	33.300000	36.200000	
12.250000	12.257466	0.999391	0.001226	0.998774	0.001226	0.998774	7.527844e+19	33.300000	36.200000	
12.260000	12.267460	0.999392	0.001224	0.998776	0.001224	0.998776	7.540139e+19	33.300000	36.200000	
12.270000	12.277454	0.999393	0.001222	0.998778	0.001222	0.998778	7.552445e+19	33.300000	36.200000	
12.280000	12.287448	0.999394	0.001220	0.998780	0.001220	0.998780	7.564760e+19	33.300000	36.200000	
12.290000	12.297442	0.999395	0.001218	0.998782	0.001218	0.998782	7.577085e+19	33.300000	36.200000	
12.300000	12.307435	0.999396	0.001216	0.998784	0.001216	0.998784	7.589421e+19	33.300000	36.200000	
12.310000	12.317429	0.999397	0.001214	0.998786	0.001214	0.998786	7.601767e+19	33.300000	36.200000	
12.320000	12.327423	0.999398	0.001212	0.998788	0.001212	0.998788	7.614122e+19	33.300000	36.200000	
12.330000	12.337417	0.999399	0.001210	0.998790	0.001210	0.998790	7.626488e+19	33.300000	36.200000	
12.340000	12.347411	0.999400	0.001208	0.998792	0.001208	0.998792	7.638863e+19	33.300000	36.200000	
12.350000	12.357405	0.999401	0.001206	0.998794	0.001206	0.998794	7.651249e+19	33.300000	36.200000	
12.360000	12.367399	0.999402	0.001204	0.998796	0.001204	0.998796	7.663645e+19	33.300000	36.200000	
12.370000	12.377393	0.999403	0.001202	0.998798	0.001202	0.998798	7.676050e+19	33.300000	36.200000	
12.380000	12.387387	0.999404	0.001200	0.998800	0.001200	0.998800	7.688466e+19	33.300000	36.200000	
12.390000	12.397381	0.999405	0.001198	0.998802	0.001198	0.998802	7.700892e+19	33.300000	36.200000	
12.400000	12.407375	0.999406	0.001196	0.998804	0.001196	0.998804	7.713328e+19	33.300000	36.200000	
12.410000	12.417369	0.999407	0.001194	0.998806	0.001194	0.998806	7.725774e+19	33.300000	36.200000	
12.420000	12.427363	0.999408	0.001192	0.998808	0.001192	0.998808	7.738230e+19	33.300000	36.200000	
12.430000	12.437357	0.999409	0.001190	0.998810	0.001190	0.998810	7.750696e+19	33.300000	36.200000	
12.440000	12.447351	0.999409	0.001188	0.998812	0.001188	0.998812	7.763172e+19	33.300000	36.200000	
12.450000	12.457345	0.999410	0.001186	0.998814	0.001186	0.998814	7.775658e+19	33.300000	36.200000	
12.460000	12.467339	0.999411	0.001185	0.998815	0.001185	0.998815	7.788154e+19	33.300000	36.200000	
12.470000	12.477333	0.999412	0.001183	0.998817	0.001183	0.998817	7.800660e+19	33.300000	36.200000	
12.480000	12.487327	0.999413	0.001181	0.998819	0.001181	0.998819	7.813176e+19	33.300000	36.200000	
12.490000	12.497321	0.999414	0.001179	0.998821	0.001179	0.998821	7.825702e+19	33.300000	36.200000	
12.500000	12.507315	0.999415	0.001177	0.998823	0.001177	0.998823	7.838238e+19	33.300000	36.200000	
12.510000	12.517309	0.999416	0.001175	0.998825	0.001175	0.998825	7.850784e+19	33.300000	36.200000	
12.520000	12.527303	0.999417	0.001173	0.998827	0.001173	0.998827	7.863340e+19	33.300000	36.200000	
12.530000	12.537297	0.999418	0.001171	0.998829	0.001171	0.998829	7.875907e+19	33.300000	36.200000	
12.540000	12.547291	0.999419	0.001169	0.998831	0.001169	0.998831	7.888483e+19	33.300000	36.200000	
12.550000	12.557285	0.999420	0.001167	0.998833	0.001167	0.998833	7.901069e+19	33.300000	36.200000	
12.560000	12.567280	0.999421	0.001166	0.998834	0.001166	0.998834	7.913666e+19	33.300000	36.200000	
12.570000	12.577274	0.999422	0.001164	0.998836	0.001164	0.998836	7.926272e+19	33.300000	36.200000	
12.580000	12.587268	0.999423	0.001162	0.998838	0.001162	0.998838	7.938888e+19	33.300000	36.200000	
12.590000	12.597262	0.999424	0.001160	0.998840	0.001160	0.998840	7.951515e+19	33.300000	36.200000	
12.600000	12.607256	0.999424	0.001158	0.998842	0.001158	0.998842	7.964151e+19	33.300000	36.200000	
12.610000	12.617250	0.999425	0.001156	0.998844	0.001156	0.998844	7.976798e+19	33.300000	36.200000	
12.620000	12.627245	0.999426	0.001154	0.998846	0.001154	0.998846	7.989455e+19	33.300000	36.200000	
12.630000	12.637239	0.999427	0.001153	0.998847	0.001153	0.998847	8.002121e+19	33.300000	36.200000	
12.640000	12.647233	0.999428	0.001151	0.998849	0.001151	0.998849	8.014798e+19	33.300000	36.200000	
12.650000	12.657227	0.999429	0.001149	0.998851	0.001149	0.998851	8.027484e+19	33.300000	36.200000	
12.660000	12.667221	0.999430	0.001147	0.998853	0.001147	0.998853	8.040181e+19	33.300000	36.200000	
12.670000	12.677216	0.999431	0.001145	0.998855	0.001145	0.998855	8.052888e+19	33.300000	36.200000	
12.680000	12.687210	0.999432	0.001143	0.998857	0.001143	0.998857	8.065605e+19	33.300000	36.200000	
12.690000	12.697204	0.999433	0.001142	0.998858	0.001142	0.998858	8.078331e+19	33.300000	36.200000	
12.700000	12.707198	0.999434	0.001140	0.998860	0.001140	0.998860	8.091068e+19	33.300000	36.200000	
12.710000	12.717193	0.999434	0.001138	0.998862	0.001138	0.998862	8.103815e+19	33.300000	36.200000	
12.720000	12.727187	0.999435	0.001136	0.998864	0.001136	0.998864	8.116572e+19	33.300000	36.200000	
12.730000	12.737181	0.999436	0.001134	0.998866	0.001134	0.998866	8.129339e+19	33.300000	36.200000	
12.740000	12.747176	0.999437	0.001132	0.998868	0.001132	0.998868	8.142116e+19	33.300000	36.200000	
12.750000	12.757170	0.999438	0.001131	0.998869	0.001131	0.998869	8.154903e+19	33.300000	36.200000	
12.760000	12.767164	0.999439	0.001129	0.998871	0.001129	0.998871	8.167700e+19	33.300000	36.200000	
12.770000	12.777158	0.999440	0.001127	0.998873	0.001127	0.998873	8.180507e+19	33.300000	36.200000	
12.780000	12.787153	0.999441	0.001125	0.998875	0.001125	0.998875	8.193324e+19	33.300000	36.200000	
12.790000	12.797147	0.999442	0.001124	0.998876	0.001124	0.998876	8.206151e+19	33.300000	36.200000	
12.800000	12.807141	0.999442	0.001122	0.998878	0.001122	0.998878	8.218988e+19	33.300000	36.200000	
12.810000	12.817136	0.999443	0.001120	0.998880	0.001120	0.998880	8.231835e+19	33.300000	36.200000	
12.820000	12.827130	0.999444	0.001118	0.998882	0.001118	0.998882	8.244693e+19	33.300000	36.200000	
12.830000	12.837125	0.999445	0.001116	0.998884	0.001116	0.998884	8.257560e+19	33.300000	36.200000	
12.840000	12.847119	0.999446	0.001115	0.998885	0.001115	0.998885	8.270437e+19	33.300000	36.200000	
12.850000	12.857113	0.999447	0.001113	0.998887	0.001113	0.998887	8.283325e+19	33.300000	36.200000	
12.860000	12.867108	0.999448	0.001111	0.998889	0.001111	0.998889	8.296222e+19	33.300000	36.200000	
12.870000	12.877102	0.999448	0.001109	0.998891	0.001109	0.998891	8.309129e+19	33.300000	36.200000	
12.880000	12.887097	0.999449	0.001108	0.998892	0.001108	0.998892	8.322047e+19	33.300000	36.200000	
12.890000	12.897091	0.999450	0.001106	0.998894	0.001106	0.998894	8.334974e+19	33.300000	36.200000	
12.900000	12.907085	0.999451	0.001104	0.998896	0.001104	0.998896	8.347912e+19	33.300000	36.200000	
12.910000	12.917080	0.999452	0.001103	0.998897	0.001103	0.998897	8.360859e+19	33.300000	36.200000	
12.920000	12.927074	0.999453	0.001101	0.998899	0.001101	0.998899	8.373817e+19	33.300000	36.200000	
12.930000	12.937069	0.999454	0.001099	0.998901	0.001099	0.998901	8.386784e+19	33.300000	36.200000	
12.940000	12.947063	0.999454	0.001097	0.998903	0.001097	0.998903	8.399762e+19	33.300000	36.200000	
12.950000	12.957058	0.999455	0.001096	0.998904	0.001096	0.998904	8.412749e+19	33.300000	36.200000	
12.960000	12.967052	0.999456	0.001094	0.998906	0.001094	0.998906	8.425747e+19	33.300000	36.200000	
12.970000	12.977047	0.999457	0.001092	0.998908	0.001092	0.998908	8.438755e+19	33.300000	36.200000	
12.980000	12.987041	0.999458	0.001091	0.998909	0.001091	0.998909	8.451773e+19	33.300000	36.200000	
12.990000	12.997036	0.999459	0.001089	0.998911	0.001089	0.998911	8.464800e+19	33.300000	36.200000	
13.000000	13.007030	0.999459	0.001087	0.998913	0.001087	0.998913	8.477838e+19	33.300000	36.200000	
13.010000	13.017025	0.999460	0.001085	0.998915	0.001085	0.998915	8.490886e+19	33.300000	36.200000	
13.020000	13.027019	0.999461	0.001084	0.998916	0.001084	0.998916	8.503944e+19	33.300000	36.200000	
13.030000	13.037014	0.999462	0.001082	0.998918	0.001082	0.998918	8.517012e+19	33.300000	36.200000	
13.040000	13.047009	0.999463	0.001080	0.998920	0.001080	0.998920	8.530090e+19	33.300000	36.200000	
13.050000	13.057003	0.999464	0.001079	0.998921	0.001079	0.998921	8.543178e+19	33.300000	36.200000	
13.060000	13.066998	0.999464	0.001077	0.998923	0.001077	0.998923	8.556276e+19	33.300000	36.200000	
13.070000	13.076992	0.999465	0.001075	0.998925	0.001075	0.998925	8.569384e+19	33.300000	36.200000	
13.080000	13.086987	0.999466	0.001074	0.998926	0.001074	0.998926	8.582502e+19	33.300000	36.200000	
13.090000	13.096981	0.999467	0.001072	0.998928	0.001072	0.998928	8.595630e+19	33.300000	36.200000	
13.100000	13.106976	0.999468	0.001070	0.998930	0.001070	0.998930	8.608768e+19	33.300000	36.200000	
13.110000	13.116971	0.999469	0.001069	0.998931	0.001069	0.998931	8.621916e+19	33.300000	36.200000	
13.120000	13.126965	0.999469	0.001067	0.998933	0.001067	0.998933	8.635075e+19	33.300000	36.200000	
13.130000	13.136960	0.999470	0.001065	0.998935	0.001065	0.998935	8.648243e+19	33.300000	36.200000	
13.140000	13.146955	0.999471	0.001064	0.998936	0.001064	0.998936	8.661421e+19	33.300000	36.200000	
13.150000	13.156949	0.999472	0.001062	0.998938	0.001062	0.998938	8.674609e+19	33.300000	36.200000	
13.160000	13.166944	0.999473	0.001061	0.998939	0.001061	0.998939	8.687808e+19	33.300000	36.200000	
13.170000	13.176939	0.999473	0.001059	0.998941	0.001059	0.998941	8.701016e+19	33.300000	36.200000	
13.180000	13.186933	0.999474	0.001057	0.998943	0.001057	0.998943	8.714234e+19	33.300000	36.200000	
13.190000	13.196928	0.999475	0.001056	0.998944	0.001056	0.998944	8.727463e+19	33.300000	36.200000	
13.200000	13.206923	0.999476	0.001054	0.998946	0.001054	0.998946	8.740701e+19	33.300000	36.200000	
13.210000	13.216917	0.999477	0.001052	0.998948	0.001052	0.998948	8.753950e+19	33.300000	36.200000	
13.220000	13.226912	0.999477	0.001051	0.998949	0.001051	0.998949	8.767208e+19	33.300000	36.200000	
13.230000	13.236907	0.999478	0.001049	0.998951	0.001049	0.998951	8.780477e+19	33.300000	36.200000	
13.240000	13.246902	0.999479	0.001048	0.998952	0.001048	0.998952	8.793756e+19	33.300000	36.200000	
13.250000	13.256896	0.999480	0.001046	0.998954	0.001046	0.998954	8.807044e+19	33.300000	36.200000	
13.260000	13.266891	0.999481	0.001044	0.998956	0.001044	0.998956	8.820343e+19	33.300000	36.200000	
13.270000	13.276886	0.999481	0.001043	0.998957	0.001043	0.998957	8.833652e+19	33.300000	36.200000	
13.280000	13.286881	0.999482	0.001041	0.998959	0.001041	0.998959	8.846970e+19	33.300000	36.200000	
13.290000	13.296875	0.999483	0.001040	0.998960	0.001040	0.998960	8.860299e+19	33.300000	36.200000	
13.300000	13.306870	0.999484	0.001038	0.998962	0.001038	0.998962	8.873638e+19	33.300000	36.200000	
13.310000	13.316865	0.999485	0.001037	0.998963	0.001037	0.998963	8.886987e+19	33.300000	36.200000	
13.320000	13.326860	0.999485	0.001035	0.998965	0.001035	0.998965	8.900346e+19	33.300000	36.200000	
13.330000	13.336854	0.999486	0.001033	0.998967	0.001033	0.998967	8.913714e+19	33.300000	36.200000	
13.340000	13.346849	0.999487	0.001032	0.998968	0.001032	0.998968	8.927093e+19	33.300000	36.200000	
13.350000	13.356844	0.999488	0.001030	0.998970	0.001030	0.998970	8.940482e+19	33.300000	36.200000	
13.360000	13.366839	0.999488	0.001029	0.998971	0.001029	0.998971	8.953881e+19	33.300000	36.200000	
13.370000	13.376834	0.999489	0.001027	0.998973	0.001027	0.998973	8.967290e+19	33.300000	36.200000	
13.380000	13.386829	0.999490	0.001026	0.998974	0.001026	0.998974	8.980709e+19	33.300000	36.200000	
13.390000	13.396823	0.999491	0.001024	0.998976	0.001024	0.998976	8.994139e+19	33.300000	36.200000	
13.400000	13.406818	0.999491	0.001023	0.998977	0.001023	0.998977	9.007578e+19	33.300000	36.200000	
13.410000	13.416813	0.999492	0.001021	0.998979	0.001021	0.998979	9.021027e+19	33.300000	36.200000	
13.420000	13.426808	0.999493	0.001019	0.998981	0.001019	0.998981	9.034486e+19	33.300000	36.200000	
13.430000	13.436803	0.999494	0.001018	0.998982	0.001018	0.998982	9.047955e+19	33.300000	36.200000	
13.440000	13.446798	0.999494	0.001016	0.998984	0.001016	0.998984	9.061435e+19	33.300000	36.200000	
13.450000	13.456793	0.999495	0.001015	0.998985	0.001015	0.998985	9.074924e+19	33.300000	36.200000	
13.460000	13.466788	0.999496	0.001013	0.998987	0.001013	0.998987	9.088423e+19	33.300000	36.200000	
13.470000	13.476782	0.999497	0.001012	0.998988	0.001012	0.998988	9.101933e+19	33.300000	36.200000	
13.480000	13.486777	0.999497	0.001010	0.998990	0.001010	0.998990	9.115452e+19	33.300000	36.200000	
13.490000	13.496772	0.999498	0.001009	0.998991	0.001009	0.998991	9.128981e+19	33.300000	36.200000	
13.500000	13.506767	0.999499	0.001007	0.998993	0.001007	0.998993	9.142521e+19	33.300000	36.200000	
13.510000	13.516762	0.999500	0.001006	0.998994	0.001006	0.998994	9.156070e+19	33.300000	36.200000	
13.520000	13.526757	0.999500	0.001004	0.998996	0.001004	0.998996	9.169630e+19	33.300000	36.200000	
13.530000	13.536752	0.999501	0.001003	0.998997	0.001003	0.998997	9.183199e+19	33.300000	36.200000	
13.540000	13.546747	0.999502	0.001001	0.998999	0.001001	0.998999	9.196779e+19	33.300000	36.200000	
13.550000	13.556742	0.999503	0.001000	0.999000	0.001000	0.999000	9.210369e+19	33.300000	36.200000	
13.560000	13.566737	0.999503	0.000998	0.999002	0.000998	0.999002	9.223968e+19	33.300000	36.200000	
13.570000	13.576732	0.999504	0.000997	0.999003	0.000997	0.999003	9.237578e+19	33.300000	36.200000	
13.580000	13.586727	0.999505	0.000995	0.999005	0.000995	0.999005	9.251198e+19	33.300000	36.200000	
13.590000	13.596722	0.999506	0.000994	0.999006	0.000994	0.999006	9.264827e+19	33.300000	36.200000	
13.600000	13.606717	0.999506	0.000992	0.999008	0.000992	0.999008	9.278467e+19	33.300000	36.200000	
13.610000	13.616712	0.999507	0.000991	0.999009	0.000991	0.999009	9.292117e+19	33.300000	36.200000	
13.620000	13.626707	0.999508	0.000989	0.999011	0.000989	0.999011	9.305777e+19	33.300000	36.200000	
13.630000	13.636702	0.999509	0.000988	0.999012	0.000988	0.999012	9.319447e+19	33.300000	36.200000	
13.640000	13.646697	0.999509	0.000987	0.999013	0.000987	0.999013	9.333127e+19	33.300000	36.200000	
13.650000	13.656692	0.999510	0.000985	0.999015	0.000985	0.999015	9.346817e+19	33.300000	36.200000	
13.660000	13.666687	0.999511	0.000984	0.999016	0.000984	0.999016	9.360517e+19	33.300000	36.200000	
13.670000	13.676682	0.999511	0.000982	0.999018	0.000982	0.999018	9.374227e+19	33.300000	36.200000	
13.680000	13.686677	0.999512	0.000981	0.999019	0.000981	0.999019	9.387947e+19	33.300000	36.200000	
13.690000	13.696672	0.999513	0.000979	0.999021	0.000979	0.999021	9.401677e+19	33.300000	36.200000	
13.700000	13.706667	0.999514	0.000978	0.999022	0.000978	0.999022	9.415417e+19	33.300000	36.200000	
13.710000	13.716662	0.999514	0.000976	0.999024	0.000976	0.999024	9.429167e+19	33.300000	36.200000	
13.720000	13.726658	0.999515	0.000975	0.999025	0.000975	0.999025	9.442927e+19	33.300000	36.200000	
13.730000	13.736653	0.999516	0.000974	0.999026	0.000974	0.999026	9.456697e+19	33.300000	36.200000	
13.740000	13.746648	0.999516	0.000972	0.999028	0.000972	0.999028	9.470478e+19	33.300000	36.200000	
13.750000	13.756643	0.999517	0.000971	0.999029	0.000971	0.999029	9.484268e+19	33.300000	36.200000	
13.760000	13.766638	0.999518	0.000969	0.999031	0.000969	0.999031	9.498068e+19	33.300000	36.200000	
13.770000	13.776633	0.999519	0.000968	0.999032	0.000968	0.999032	9.511879e+19	33.300000	36.200000	
13.780000	13.786628	0.999519	0.000966	0.999034	0.000966	0.999034	9.525699e+19	33.300000	36.200000	
13.790000	13.796623	0.999520	0.000965	0.999035	0.000965	0.999035	9.539529e+19	33.300000	36.200000	
13.800000	13.806619	0.999521	0.000964	0.999036	0.000964	0.999036	9.553370e+19	33.300000	36.200000	
13.810000	13.816614	0.999521	0.000962	0.999038	0.000962	0.999038	9.567220e+19	33.300000	36.200000	
13.820000	13.826609	0.999522	0.000961	0.999039	0.000961	0.999039	9.581081e+19	33.300000	36.200000	
13.830000	13.836604	0.999523	0.000959	0.999041	0.000959	0.999041	9.594951e+19	33.300000	36.200000	
13.840000	13.846599	0.999523	0.000958	0.999042	0.000958	0.999042	9.608832e+19	33.300000	36.200000	
13.850000	13.856594	0.999524	0.000957	0.999043	0.000957	0.999043	9.622723e+19	33.300000	36.200000	
13.860000	13.866590	0.999525	0.000955	0.999045	0.000955	0.999045	9.636623e+19	33.300000	36.200000	
13.870000	13.876585	0.999525	0.000954	0.999046	0.000954	0.999046	9.650534e+19	33.300000	36.200000	
13.880000	13.886580	0.999526	0.000952	0.999048	0.000952	0.999048	9.664455e+19	33.300000	36.200000	
13.890000	13.896575	0.999527	0.000951	0.999049	0.000951	0.999049	9.678385e+19	33.300000	36.200000	
13.900000	13.906570	0.999528	0.000950	0.999050	0.000950	0.999050	9.692326e+19	33.300000	36.200000	
13.910000	13.916566	0.999528	0.000948	0.999052	0.000948	0.999052	9.706277e+19	33.300000	36.200000	
13.920000	13.926561	0.999529	0.000947	0.999053	0.000947	0.999053	9.720238e+19	33.300000	36.200000	
13.930000	13.936556	0.999530	0.000946	0.999054	0.000946	0.999054	9.734209e+19	33.300000	36.200000	
13.940000	13.946551	0.999530	0.000944	0.999056	0.000944	0.999056	9.748190e+19	33.300000	36.200000	
13.950000	13.956547	0.999531	0.000943	0.999057	0.000943	0.999057	9.762181e+19	33.300000	36.200000	
13.960000	13.966542	0.999532	0.000941	0.999059	0.000941	0.999059	9.776182e+19	33.300000	36.200000	
13.970000	13.976537	0.999532	0.000940	0.999060	0.000940	0.999060	9.790193e+19	33.300000	36.200000	
13.980000	13.986533	0.999533	0.000939	0.999061	0.000939	0.999061	9.804214e+19	33.300000	36.200000	
13.990000	13.996528	0.999534	0.000937	0.999063	0.000937	0.999063	9.818245e+19	33.300000	36.200000	
14.000000	14.006523	0.999534	0.000936	0.999064	0.000936	0.999064	9.832286e+19	33.300000	36.200000	
14.010000	14.016518	0.999535	0.000935	0.999065	0.000935	0.999065	9.846337e+19	33.300000	36.200000	
14.020000	14.026514	0.999536	0.000933	0.999067	0.000933	0.999067	9.860398e+19	33.300000	36.200000	
14.030000	14.036509	0.999536	0.000932	0.999068	0.000932	0.999068	9.874469e+19	33.300000	36.200000	
14.040000	14.046504	0.999537	0.000931	0.999069	0.000931	0.999069	9.888550e+19	33.300000	36.200000	
14.050000	14.056500	0.999538	0.000929	0.999071	0.000929	0.999071	9.902642e+19	33.300000	36.200000	
14.060000	14.066495	0.999538	0.000928	0.999072	0.000928	0.999072	9.916743e+19	33.300000	36.200000	
14.070000	14.076490	0.999539	0.000927	0.999073	0.000927	0.999073	9.930854e+19	33.300000	36.200000	
14.080000	14.086486	0.999540	0.000925	0.999075	0.000925	0.999075	9.944976e+19	33.300000	36.200000	
14.090000	14.096481	0.999540	0.000924	0.999076	0.000924	0.999076	9.959107e+19	33.300000	36.200000	
14.100000	14.106476	0.999541	0.000923	0.999077	0.000923	0.999077	9.973249e+19	33.300000	36.200000	
14.110000	14.116472	0.999542	0.000921	0.999079	0.000921	0.999079	9.987400e+19	33.300000	36.200000	
14.120000	14.126467	0.999542	0.000920	0.999080	0.000920	0.999080	1.000156e+20	33.300000	36.200000	
14.130000	14.136463	0.999543	0.000919	0.999081	0.000919	0.999081	1.001573e+20	33.300000	36.200000	
14.140000	14.146458	0.999543	0.000917	0.999083	0.000917	0.999083	1.002991e+20	33.300000	36.200000	
14.150000	14.156453	0.999544	0.000916	0.999084	0.000916	0.999084	1.004411e+20	33.300000	36.200000	
14.160000	14.166449	0.999545	0.000915	0.999085	0.000915	0.999085	1.005831e+20	33.300000	36.200000	
14.170000	14.176444	0.999545	0.000913	0.999087	0.000913	0.999087	1.007252e+20	33.300000	36.200000	
14.180000	14.186440	0.999546	0.000912	0.999088	0.000912	0.999088	1.008674e+20	33.300000	36.200000	
14.190000	14.196435	0.999547	0.000911	0.999089	0.000911	0.999089	1.010097e+20	33.300000	36.200000	
14.200000	14.206430	0.999547	0.000910	0.999090	0.000910	0.999090	1.011521e+20	33.300000	36.200000	
14.210000	14.216426	0.999548	0.000908	0.999092	0.000908	0.999092	1.012947e+20	33.300000	36.200000	
14.220000	14.226421	0.999549	0.000907	0.999093	0.000907	0.999093	1.014373e+20	33.300000	36.200000	
14.230000	14.236417	0.999549	0.000906	0.999094	0.000906	0.999094	1.015800e+20	33.300000	36.200000	
14.240000	14.246412	0.999550	0.000904	0.999096	0.000904	0.999096	1.017228e+20	33.300000	36.200000	
14.250000	14.256408	0.999551	0.000903	0.999097	0.000903	0.999097	1.018657e+20	33.300000	36.200000	
14.260000	14.266403	0.999551	0.000902	0.999098	0.000902	0.999098	1.020088e+20	33.300000	36.200000	
14.270000	14.276399	0.999552	0.000901	0.999099	0.000901	0.999099	1.021519e+20	33.300000	36.200000	
14.280000	14.286394	0.999552	0.000899	0.999101	0.000899	0.999101	1.022951e+20	33.300000	36.200000	
14.290000	14.296389	0.999553	0.000898	0.999102	0.000898	0.999102	1.024384e+20	33.300000	36.200000	
14.300000	14.306385	0.999554	0.000897	0.999103	0.000897	0.999103	1.025818e+20	33.300000	36.200000	
14.310000	14.316380	0.999554	0.000896	0.999104	0.000896	0.999104	1.027254e+20	33.300000	36.200000	
14.320000	14.326376	0.999555	0.000894	0.999106	0.000894	0.999106	1.028690e+20	33.300000	36.200000	
14.330000	14.336371	0.999556	0.000893	0.999107	0.000893	0.999107	1.030127e+20	33.300000	36.200000	
14.340000	14.346367	0.999556	0.000892	0.999108	0.000892	0.999108	1.031565e+20	33.300000	36.200000	
14.350000	14.356363	0.999557	0.000890	0.999110	0.000890	0.999110	1.033005e+20	33.300000	36.200000	
14.360000	14.366358	0.999557	0.000889	0.999111	0.000889	0.999111	1.034445e+20	33.300000	36.200000	
14.370000	14.376354	0.999558	0.000888	0.999112	0.000888	0.999112	1.035886e+20	33.300000	36.200000	
14.380000	14.386349	0.999559	0.000887	0.999113	0.000887	0.999113	1.037328e+20	33.300000	36.200000	
14.390000	14.396345	0.999559	0.000886	0.999114	0.000886	0.999114	1.038771e+20	33.300000	36.200000	
14.400000	14.406340	0.999560	0.000884	0.999116	0.000884	0.999116	1.040216e+20	33.300000	36.200000	
14.410000	14.416336	0.999561	0.000883	0.999117	0.000883	0.999117	1.041661e+20	33.300000	36.200000	
14.420000	14.426331	0.999561	0.000882	0.999118	0.000882	0.999118	1.043107e+20	33.300000	36.200000	
14.430000	14.436327	0.999562	0.000881	0.999119	0.000881	0.999119	1.044554e+20	33.300000	36.200000	
14.440000	14.446322	0.999562	0.000879	0.999121	0.000879	0.999121	1.046003e+20	33.300000	36.200000	
14.450000	14.456318	0.999563	0.000878	0.999122	0.000878	0.999122	1.047452e+20	33.300000	36.200000	
14.460000	14.466314	0.999564	0.000877	0.999123	0.000877	0.999123	1.048902e+20	33.300000	36.200000	
14.470000	14.476309	0.999564	0.000876	0.999124	0.000876	0.999124	1.050353e+20	33.300000	36.200000	
14.480000	14.486305	0.999565	0.000874	0.999126	0.000874	0.999126	1.051806e+20	33.300000	36.200000	
14.490000	14.496300	0.999565	0.000873	0.999127	0.000873	0.999127	1.053259e+20	33.300000	36.200000	
14.500000	14.506296	0.999566	0.000872	0.999128	0.000872	0.999128	1.054713e+20	33.300000	36.200000	
14.510000	14.516292	0.999567	0.000871	0.999129	0.000871	0.999129	1.056169e+20	33.300000	36.200000	
14.520000	14.526287	0.999567	0.000870	0.999130	0.000870	0.999130	1.057625e+20	33.300000	36.200000	
14.530000	14.536283	0.999568	0.000868	0.999132	0.000868	0.999132	1.059082e+20	33.300000	36.200000	
14.540000	14.546279	0.999568	0.000867	0.999133	0.000867	0.999133	1.060540e+20	33.300000	36.200000	
14.550000	14.556274	0.999569	0.000866	0.999134	0.000866	0.999134	1.062000e+20	33.300000	36.200000	
14.560000	14.566270	0.999570	0.000865	0.999135	0.000865	0.999135	1.063460e+20	33.300000	36.200000	
14.570000	14.576266	0.999570	0.000864	0.999136	0.000864	0.999136	1.064921e+20	33.300000	36.200000	
14.580000	14.586261	0.999571	0.000862	0.999138	0.000862	0.999138	1.066384e+20	33.300000	36.200000	
14.590000	14.596257	0.999571	0.000861	0.999139	0.000861	0.999139	1.067847e+20	33.300000	36.200000	
14.600000	14.606253	0.999572	0.000860	0.999140	0.000860	0.999140	1.069311e+20	33.300000	36.200000	
14.610000	14.616248	0.999573	0.000859	0.999141	0.000859	0.999141	1.070777e+20	33.300000	36.200000	
14.620000	14.626244	0.999573	0.000858	0.999142	0.000858	0.999142	1.072243e+20	33.300000	36.200000	
14.630000	14.636240	0.999574	0.000856	0.999144	0.000856	0.999144	1.073710e+20	33.300000	36.200000	
14.640000	14.646235	0.999574	0.000855	0.999145	0.000855	0.999145	1.075179e+20	33.300000	36.200000	
14.650000	14.656231	0.999575	0.000854	0.999146	0.000854	0.999146	1.076648e+20	33.300000	36.200000	
14.660000	14.666227	0.999575	0.000853	0.999147	0.000853	0.999147	1.078118e+20	33.300000	36.200000	
14.670000	14.676222	0.999576	0.000852	0.999148	0.000852	0.999148	1.079589e+20	33.300000	36.200000	
14.680000	14.686218	0.999577	0.000851	0.999149	0.000851	0.999149	1.081062e+20	33.300000	36.200000	
14.690000	14.696214	0.999577	0.000849	0.999151	0.000849	0.999151	1.082535e+20	33.300000	36.200000	
14.700000	14.706210	0.999578	0.000848	0.999152	0.000848	0.999152	1.084010e+20	33.300000	36.200000	
14.710000	14.716205	0.999578	0.000847	0.999153	0.000847	0.999153	1.085485e+20	33.300000	36.200000	
14.720000	14.726201	0.999579	0.000846	0.999154	0.000846	0.999154	1.086961e+20	33.300000	36.200000	
14.730000	14.736197	0.999579	0.000845	0.999155	0.000845	0.999155	1.088439e+20	33.300000	36.200000	
14.740000	14.746193	0.999580	0.000844	0.999156	0.000844	0.999156	1.089917e+20	33.300000	36.200000	
14.750000	14.756188	0.999581	0.000842	0.999158	0.000842	0.999158	1.091396e+20	33.300000	36.200000	
14.760000	14.766184	0.999581	0.000841	0.999159	0.000841	0.999159	1.092877e+20	33.300000	36.200000	
14.770000	14.776180	0.999582	0.000840	0.999160	0.000840	0.999160	1.094358e+20	33.300000	36.200000	
14.780000	14.786176	0.999582	0.000839	0.999161	0.000839	0.999161	1.095840e+20	33.300000	36.200000	
14.790000	14.796172	0.999583	0.000838	0.999162	0.000838	0.999162	1.097324e+20	33.300000	36.200000	
14.800000	14.806167	0.999583	0.000837	0.999163	0.000837	0.999163	1.098808e+20	33.300000	36.200000	
14.810000	14.816163	0.999584	0.000836	0.999164	0.000836	0.999164	1.100293e+20	33.300000	36.200000	
14.820000	14.826159	0.999585	0.000834	0.999166	0.000834	0.999166	1.101780e+20	33.300000	36.200000	
14.830000	14.836155	0.999585	0.000833	0.999167	0.000833	0.999167	1.103267e+20	33.300000	36.200000	
14.840000	14.846151	0.999586	0.000832	0.999168	0.000832	0.999168	1.104756e+20	33.300000	36.200000	
14.850000	14.856146	0.999586	0.000831	0.999169	0.000831	0.999169	1.106245e+20	33.300000	36.200000	
14.860000	14.866142	0.999587	0.000830	0.999170	0.000830	0.999170	1.107735e+20	33.300000	36.200000	
14.870000	14.876138	0.999587	0.000829	0.999171	0.000829	0.999171	1.109227e+20	33.300000	36.200000	
14.880000	14.886134	0.999588	0.000828	0.999172	0.000828	0.999172	1.110719e+20	33.300000	36.200000	
14.890000	14.896130	0.999589	0.000827	0.999173	0.000827	0.999173	1.112213e+20	33.300000	36.200000	
14.900000	14.906126	0.999589	0.000825	0.999175	0.000825	0.999175	1.113707e+20	33.300000	36.200000	
14.910000	14.916121	0.999590	0.000824	0.999176	0.000824	0.999176	1.115202e+20	33.300000	36.200000	
14.920000	14.926117	0.999590	0.000823	0.999177	0.000823	0.999177	1.116699e+20	33.300000	36.200000	
14.930000	14.936113	0.999591	0.000822	0.999178	0.000822	0.999178	1.118196e+20	33.300000	36.200000	
14.940000	14.946109	0.999591	0.000821	0.999179	0.000821	0.999179	1.119695e+20	33.300000	36.200000	
14.950000	14.956105	0.999592	0.000820	0.999180	0.000820	0.999180	1.121194e+20	33.300000	36.200000	
14.960000	14.966101	0.999592	0.000819	0.999181	0.000819	0.999181	1.122695e+20	33.300000	36.200000	
14.970000	14.976097	0.999593	0.000818	0.999182	0.000818	0.999182	1.124196e+20	33.300000	36.200000	
14.980000	14.986093	0.999593	0.000817	0.999183	0.000817	0.999183	1.125698e+20	33.300000	36.200000	
14.990000	14.996088	0.999594	0.000815	0.999185	0.000815	0.999185	1.127202e+20	33.300000	36.200000	
15.000000	15.006084	0.999595	0.000814	0.999186	0.000814	0.999186	1.128706e+20	33.300000	36.200000	
15.010000	15.016080	0.999595	0.000813	0.999187	0.000813	0.999187	1.130212e+20	33.300000	36.200000	
15.020000	15.026076	0.999596	0.000812	0.999188	0.000812	0.999188	1.131718e+20	33.300000	36.200000	
15.030000	15.036072	0.999596	0.000811	0.999189	0.000811	0.999189	1.133226e+20	33.300000	36.200000	
15.040000	15.046068	0.999597	0.000810	0.999190	0.000810	0.999190	1.134734e+20	33.300000	36.200000	
15.050000	15.056064	0.999597	0.000809	0.999191	0.000809	0.999191	1.136244e+20	33.300000	36.200000	
15.060000	15.066060	0.999598	0.000808	0.999192	0.000808	0.999192	1.137754e+20	33.300000	36.200000	
15.070000	15.076056	0.999598	0.000807	0.999193	0.000807	0.999193	1.139265e+20	33.300000	36.200000	
15.080000	15.086052	0.999599	0.000806	0.999194	0.000806	0.999194	1.140778e+20	33.300000	36.200000	
15.090000	15.096048	0.999599	0.000805	0.999195	0.000805	0.999195	1.142291e+20	33.300000	36.200000	
15.100000	15.106044	0.999600	0.000804	0.999196	0.000804	0.999196	1.143806e+20	33.300000	36.200000	
15.110000	15.116040	0.999600	0.000802	0.999198	0.000802	0.999198	1.145321e+20	33.300000	36.200000	
15.120000	15.126036	0.999601	0.000801	0.999199	0.000801	0.999199	1.146838e+20	33.300000	36.200000	
15.130000	15.136032	0.999602	0.000800	0.999200	0.000800	0.999200	1.148355e+20	33.300000	36.200000	
15.140000	15.146028	0.999602	0.000799	0.999201	0.000799	0.999201	1.149874e+20	33.300000	36.200000	
15.150000	15.156024	0.999603	0.000798	0.999202	0.000798	0.999202	1.151393e+20	33.300000	36.200000	
15.160000	15.166020	0.999603	0.000797	0.999203	0.000797	0.999203	1.152914e+20	33.300000	36.200000	
15.170000	15.176016	0.999604	0.000796	0.999204	0.000796	0.999204	1.154435e+20	33.300000	36.200000	
15.180000	15.186012	0.999604	0.000795	0.999205	0.000795	0.999205	1.155958e+20	33.300000	36.200000	
15.190000	15.196008	0.999605	0.000794	0.999206	0.000794	0.999206	1.157481e+20	33.300000	36.200000	
15.200000	15.206004	0.999605	0.000793	0.999207	0.000793	0.999207	1.159006e+20	33.300000	36.200000	
15.210000	15.216000	0.999606	0.000792	0.999208	0.000792	0.999208	1.160531e+20	33.300000	36.200000	
15.220000	15.225996	0.999606	0.000791	0.999209	0.000791	0.999209	1.162058e+20	33.300000	36.200000	
15.230000	15.235992	0.999607	0.000790	0.999210	0.000790	0.999210	1.163585e+20	33.300000	36.200000	
15.240000	15.245988	0.999607	0.000789	0.999211	0.000789	0.999211	1.165114e+20	33.300000	36.200000	
15.250000	15.255984	0.999608	0.000788	0.999212	0.000788	0.999212	1.166643e+20	33.300000	36.200000	
15.260000	15.265980	0.999608	0.000787	0.999213	0.000787	0.999213	1.168174e+20	33.300000	36.200000	
15.270000	15.275976	0.999609	0.000786	0.999214	0.000786	0.999214	1.169705e+20	33.300000	36.200000	
15.280000	15.285972	0.999609	0.000785	0.999215	0.000785	0.999215	1.171238e+20	33.300000	36.200000	
15.290000	15.295968	0.999610	0.000784	0.999216	0.000784	0.999216	1.172771e+20	33.300000	36.200000	
15.300000	15.305964	0.999610	0.000783	0.999217	0.000783	0.999217	1.174306e+20	33.300000	36.200000	
15.310000	15.315960	0.999611	0.000781	0.999219	0.000781	0.999219	1.175842e+20	33.300000	36.200000	
15.320000	15.325956	0.999611	0.000780	0.999220	0.000780	0.999220	1.177378e+20	33.300000	36.200000	
15.330000	15.335952	0.999612	0.000779	0.999221	0.000779	0.999221	1.178916e+20	33.300000	36.200000	
15.340000	15.345948	0.999612	0.000778	0.999222	0.000778	0.999222	1.180454e+20	33.300000	36.200000	
15.350000	15.355945	0.999613	0.000777	0.999223	0.000777	0.999223	1.181994e+20	33.300000	36.200000	
15.360000	15.365941	0.999613	0.000776	0.999224	0.000776	0.999224	1.183534e+20	33.300000	36.200000	
15.370000	15.375937	0.999614	0.000775	0.999225	0.000775	0.999225	1.185076e+20	33.300000	36.200000	
15.380000	15.385933	0.999614	0.000774	0.999226	0.000774	0.999226	1.186618e+20	33.300000	36.200000	
15.390000	15.395929	0.999615	0.000773	0.999227	0.000773	0.999227	1.188162e+20	33.300000	36.200000	
15.400000	15.405925	0.999615	0.000772	0.999228	0.000772	0.999228	1.189707e+20	33.300000	36.200000	
15.410000	15.415921	0.999616	0.000771	0.999229	0.000771	0.999229	1.191252e+20	33.300000	36.200000	
15.420000	15.425917	0.999616	0.000770	0.999230	0.000770	0.999230	1.192799e+20	33.300000	36.200000	
15.430000	15.435913	0.999617	0.000769	0.999231	0.000769	0.999231	1.194346e+20	33.300000	36.200000	
15.440000	15.445910	0.999617	0.000768	0.999232	0.000768	0.999232	1.195895e+20	33.300000	36.200000	
15.450000	15.455906	0.999618	0.000767	0.999233	0.000767	0.999233	1.197444e+20	33.300000	36.200000	
15.460000	15.465902	0.999618	0.000766	0.999234	0.000766	0.999234	1.198995e+20	33.300000	36.200000	
15.470000	15.475898	0.999619	0.000765	0.999235	0.000765	0.999235	1.200547e+20	33.300000	36.200000	
15.480000	15.485894	0.999619	0.000764	0.999236	0.000764	0.999236	1.202099e+20	33.300000	36.200000	
15.490000	15.495890	0.999620	0.000763	0.999237	0.000763	0.999237	1.203653e+20	33.300000	36.200000	
15.500000	15.505887	0.999620	0.000762	0.999238	0.000762	0.999238	1.205207e+20	33.300000	36.200000	
15.510000	15.515883	0.999621	0.000761	0.999239	0.000761	0.999239	1.206763e+20	33.300000	36.200000	
15.520000	15.525879	0.999621	0.000760	0.999240	0.000760	0.999240	1.208320e+20	33.300000	36.200000	
15.530000	15.535875	0.999622	0.000759	0.999241	0.000759	0.999241	1.209877e+20	33.300000	36.200000	
15.540000	15.545871	0.999622	0.000758	0.999242	0.000758	0.999242	1.211436e+20	33.300000	36.200000	
15.550000	15.555867	0.999623	0.000757	0.999243	0.000757	0.999243	1.212996e+20	33.300000	36.200000	
15.560000	15.565864	0.999623	0.000756	0.999244	0.000756	0.999244	1.214556e+20	33.300000	36.200000	
15.570000	15.575860	0.999624	0.000755	0.999245	0.000755	0.999245	1.216118e+20	33.300000	36.200000	
15.580000	15.585856	0.999624	0.000754	0.999246	0.000754	0.999246	1.217680e+20	33.300000	36.200000	
15.590000	15.595852	0.999625	0.000753	0.999247	0.000753	0.999247	1.219244e+20	33.300000	36.200000	
15.600000	15.605849	0.999625	0.000752	0.999248	0.000752	0.999248	1.220809e+20	33.300000	36.200000	
15.610000	15.615845	0.999626	0.000752	0.999248	0.000752	0.999248	1.222374e+20	33.300000	36.200000	
15.620000	15.625841	0.999626	0.000751	0.999249	0.000751	0.999249	1.223941e+20	33.300000	36.200000	
15.630000	15.635837	0.999627	0.000750	0.999250	0.000750	0.999250	1.225509e+20	33.300000	36.200000	
15.640000	15.645833	0.999627	0.000749	0.999251	0.000749	0.999251	1.227077e+20	33.300000	36.200000	
15.650000	15.655830	0.999628	0.000748	0.999252	0.000748	0.999252	1.228647e+20	33.300000	36.200000	
15.660000	15.665826	0.999628	0.000747	0.999253	0.000747	0.999253	1.230218e+20	33.300000	36.200000	
15.670000	15.675822	0.999629	0.000746	0.999254	0.000746	0.999254	1.231789e+20	33.300000	36.200000	
15.680000	15.685818	0.999629	0.000745	0.999255	0.000745	0.999255	1.233362e+20	33.300000	36.200000	
15.690000	15.695815	0.999630	0.000744	0.999256	0.000744	0.999256	1.234936e+20	33.300000	36.200000	
15.700000	15.705811	0.999630	0.000743	0.999257	0.000743	0.999257	1.236510e+20	33.300000	36.200000	
15.710000	15.715807	0.999630	0.000742	0.999258	0.000742	0.999258	1.238086e+20	33.300000	36.200000	
15.720000	15.725804	0.999631	0.000741	0.999259	0.000741	0.999259	1.239663e+20	33.300000	36.200000	
15.730000	15.735800	0.999631	0.000740	0.999260	0.000740	0.999260	1.241240e+20	33.300000	36.200000	
15.740000	15.745796	0.999632	0.000739	0.999261	0.000739	0.999261	1.242819e+20	33.300000	36.200000	
15.750000	15.755792	0.999632	0.000738	0.999262	0.000738	0.999262	1.244399e+20	33.300000	36.200000	
15.760000	15.765789	0.999633	0.000737	0.999263	0.000737	0.999263	1.245979e+20	33.300000	36.200000	
15.770000	15.775785	0.999633	0.000736	0.999264	0.000736	0.999264	1.247561e+20	33.300000	36.200000	
15.780000	15.785781	0.999634	0.000735	0.999265	0.000735	0.999265	1.249144e+20	33.300000	36.200000	
15.790000	15.795778	0.999634	0.000734	0.999266	0.000734	0.999266	1.250727e+20	33.300000	36.200000	
15.800000	15.805774	0.999635	0.000733	0.999267	0.000733	0.999267	1.252312e+20	33.300000	36.200000	
15.810000	15.815770	0.999635	0.000732	0.999268	0.000732	0.999268	1.253898e+20	33.300000	36.200000	
15.820000	15.825767	0.999636	0.000732	0.999268	0.000732	0.999268	1.255485e+20	33.300000	36.200000	
15.830000	15.835763	0.999636	0.000731	0.999269	0.000731	0.999269	1.257072e+20	33.300000	36.200000	
15.840000	15.845759	0.999637	0.000730	0.999270	0.000730	0.999270	1.258661e+20	33.300000	36.200000	
15.850000	15.855756	0.999637	0.000729	0.999271	0.000729	0.999271	1.260251e+20	33.300000	36.200000	
15.860000	15.865752	0.999637	0.000728	0.999272	0.000728	0.999272	1.261841e+20	33.300000	36.200000	
15.870000	15.875748	0.999638	0.000727	0.999273	0.000727	0.999273	1.263433e+20	33.300000	36.200000	
15.880000	15.885745	0.999638	0.000726	0.999274	0.000726	0.999274	1.265026e+20	33.300000	36.200000	
15.890000	15.895741	0.999639	0.000725	0.999275	0.000725	0.999275	1.266620e+20	33.300000	36.200000	
15.900000	15.905737	0.999639	0.000724	0.999276	0.000724	0.999276	1.268214e+20	33.300000	36.200000	
15.910000	15.915734	0.999640	0.000723	0.999277	0.000723	0.999277	1.269810e+20	33.300000	36.200000	
15.920000	15.925730	0.999640	0.000722	0.999278	0.000722	0.999278	1.271407e+20	33.300000	36.200000	
15.930000	15.935726	0.999641	0.000721	0.999279	0.000721	0.999279	1.273005e+20	33.300000	36.200000	
15.940000	15.945723	0.999641	0.000720	0.999280	0.000720	0.999280	1.274603e+20	33.300000	36.200000	
15.950000	15.955719	0.999642	0.000720	0.999280	0.000720	0.999280	1.276203e+20	33.300000	36.200000	
15.960000	15.965716	0.999642	0.000719	0.999281	0.000719	0.999281	1.277804e+20	33.300000	36.200000	
15.970000	15.975712	0.999642	0.000718	0.999282	0.000718	0.999282	1.279406e+20	33.300000	36.200000	
15.980000	15.985708	0.999643	0.000717	0.999283	0.000717	0.999283	1.281008e+20	33.300000	36.200000	
15.990000	15.995705	0.999643	0.000716	0.999284	0.000716	0.999284	1.282612e+20	33.300000	36.200000	
16.000000	16.005701	0.999644	0.000715	0.999285	0.000715	0.999285	1.284217e+20	33.300000	36.200000	
16.010000	16.015698	0.999644	0.000714	0.999286	0.000714	0.999286	1.285823e+20	33.300000	36.200000	
16.020000	16.025694	0.999645	0.000713	0.999287	0.000713	0.999287	1.287429e+20	33.300000	36.200000	
16.030000	16.035690	0.999645	0.000712	0.999288	0.000712	0.999288	1.289037e+20	33.300000	36.200000	
16.040000	16.045687	0.999646	0.000711	0.999289	0.000711	0.999289	1.290646e+20	33.300000	36.200000	
16.050000	16.055683	0.999646	0.000711	0.999289	0.000711	0.999289	1.292256e+20	33.300000	36.200000	
16.060000	16.065680	0.999646	0.000710	0.999290	0.000710	0.999290	1.293867e+20	33.300000	36.200000	
16.070000	16.075676	0.999647	0.000709	0.999291	0.000709	0.999291	1.295478e+20	33.300000	36.200000	
16.080000	16.085673	0.999647	0.000708	0.999292	0.000708	0.999292	1.297091e+20	33.300000	36.200000	
16.090000	16.095669	0.999648	0.000707	0.999293	0.000707	0.999293	1.298705e+20	33.300000	36.200000	
16.100000	16.105666	0.999648	0.000706	0.999294	0.000706	0.999294	1.300320e+20	33.300000	36.200000	
16.110000	16.115662	0.999649	0.000705	0.999295	0.000705	0.999295	1.301936e+20	33.300000	36.200000	
16.120000	16.125658	0.999649	0.000704	0.999296	0.000704	0.999296	1.303552e+20	33.300000	36.200000	
16.130000	16.135655	0.999650	0.000703	0.999297	0.000703	0.999297	1.305170e+20	33.300000	36.200000	
16.140000	16.145651	0.999650	0.000703	0.999297	0.000703	0.999297	1.306789e+20	33.300000	36.200000	
16.150000	16.155648	0.999650	0.000702	0.999298	0.000702	0.999298	1.308409e+20	33.300000	36.200000	
16.160000	16.165644	0.999651	0.000701	0.999299	0.000701	0.999299	1.310030e+20	33.300000	36.200000	
16.170000	16.175641	0.999651	0.000700	0.999300	0.000700	0.999300	1.311651e+20	33.300000	36.200000	
16.180000	16.185637	0.999652	0.000699	0.999301	0.000699	0.999301	1.313274e+20	33.300000	36.200000	
16.190000	16.195634	0.999652	0.000698	0.999302	0.000698	0.999302	1.314898e+20	33.300000	36.200000	
16.200000	16.205630	0.999653	0.000697	0.999303	0.000697	0.999303	1.316523e+20	33.300000	36.200000	
16.210000	16.215627	0.999653	0.000697	0.999303	0.000697	0.999303	1.318149e+20	33.300000	36.200000	
16.220000	16.225623	0.999653	0.000696	0.999304	0.000696	0.999304	1.319776e+20	33.300000	36.200000	
16.230000	16.235620	0.999654	0.000695	0.999305	0.000695	0.999305	1.321404e+20	33.300000	36.200000	
16.240000	16.245616	0.999654	0.000694	0.999306	0.000694	0.999306	1.323032e+20	33.300000	36.200000	
16.250000	16.255613	0.999655	0.000693	0.999307	0.000693	0.999307	1.324662e+20	33.300000	36.200000	
16.260000	16.265609	0.999655	0.000692	0.999308	0.000692	0.999308	1.326293e+20	33.300000	36.200000	
16.270000	16.275606	0.999656	0.000691	0.999309	0.000691	0.999309	1.327925e+20	33.300000	36.200000	
16.280000	16.285602	0.999656	0.000691	0.999309	0.000691	0.999309	1.329558e+20	33.300000	36.200000	
16.290000	16.295599	0.999656	0.000690	0.999310	0.000690	0.999310	1.331192e+20	33.300000	36.200000	
16.300000	16.305595	0.999657	0.000689	0.999311	0.000689	0.999311	1.332827e+20	33.300000	36.200000	
16.310000	16.315592	0.999657	0.000688	0.999312	0.000688	0.999312	1.334462e+20	33.300000	36.200000	
16.320000	16.325589	0.999658	0.000687	0.999313	0.000687	0.999313	1.336099e+20	33.300000	36.200000	
16.330000	16.335585	0.999658	0.000686	0.999314	0.000686	0.999314	1.337737e+20	33.300000	36.200000	
16.340000	16.345582	0.999659	0.000685	0.999315	0.000685	0.999315	1.339376e+20	33.300000	36.200000	
16.350000	16.355578	0.999659	0.000685	0.999315	0.000685	0.999315	1.341016e+20	33.300000	36.200000	
16.360000	16.365575	0.999659	0.000684	0.999316	0.000684	0.999316	1.342657e+20	33.300000	36.200000	
16.370000	16.375571	0.999660	0.000683	0.999317	0.000683	0.999317	1.344299e+20	33.300000	36.200000	
16.380000	16.385568	0.999660	0.000682	0.999318	0.000682	0.999318	1.345942e+20	33.300000	36.200000	
16.390000	16.395565	0.999661	0.000681	0.999319	0.000681	0.999319	1.347585e+20	33.300000	36.200000	
16.400000	16.405561	0.999661	0.000680	0.999320	0.000680	0.999320	1.349230e+20	33.300000	36.200000	
16.410000	16.415558	0.999661	0.000680	0.999320	0.000680	0.999320	1.350876e+20	33.300000	36.200000	
16.420000	16.425554	0.999662	0.000679	0.999321	0.000679	0.999321	1.352523e+20	33.300000	36.200000	
16.430000	16.435551	0.999662	0.000678	0.999322	0.000678	0.999322	1.354171e+20	33.300000	36.200000	
16.440000	16.445548	0.999663	0.000677	0.999323	0.000677	0.999323	1.355820e+20	33.300000	36.200000	
16.450000	16.455544	0.999663	0.000676	0.999324	0.000676	0.999324	1.357470e+20	33.300000	36.200000	
16.460000	16.465541	0.999663	0.000675	0.999325	0.000675	0.999325	1.359121e+20	33.300000	36.200000	
16.470000	16.475537	0.999664	0.000675	0.999325	0.000675	0.999325	1.360773e+20	33.300000	36.200000	
16.480000	16.485534	0.999664	0.000674	0.999326	0.000674	0.999326	1.362426e+20	33.300000	36.200000	
16.490000	16.495531	0.999665	0.000673	0.999327	0.000673	0.999327	1.364080e+20	33.300000	36.200000	
16.500000	16.505527	0.999665	0.000672	0.999328	0.000672	0.999328	1.365735e+20	33.300000	36.200000	
16.510000	16.515524	0.999666	0.000671	0.999329	0.000671	0.999329	1.367391e+20	33.300000	36.200000	
16.520000	16.525520	0.999666	0.000670	0.999330	0.000670	0.999330	1.369047e+20	33.300000	36.200000	
16.530000	16.535517	0.999666	0.000670	0.999330	0.000670	0.999330	1.370705e+20	33.300000	36.200000	
16.540000	16.545514	0.999667	0.000669	0.999331	0.000669	0.999331	1.372364e+20	33.300000	36.200000	
16.550000	16.555510	0.999667	0.000668	0.999332	0.000668	0.999332	1.374024e+20	33.300000	36.200000	
16.560000	16.565507	0.999668	0.000667	0.999333	0.000667	0.999333	1.375685e+20	33.300000	36.200000	
16.570000	16.575504	0.999668	0.000666	0.999334	0.000666	0.999334	1.377347e+20	33.300000	36.200000	
16.580000	16.585500	0.999668	0.000666	0.999334	0.000666	0.999334	1.379010e+20	33.300000	36.200000	
16.590000	16.595497	0.999669	0.000665	0.999335	0.000665	0.999335	1.380674e+20	33.300000	36.200000	
16.600000	16.605494	0.999669	0.000664	0.999336	0.000664	0.999336	1.382339e+20	33.300000	36.200000	
16.610000	16.615490	0.999670	0.000663	0.999337	0.000663	0.999337	1.384005e+20	33.300000	36.200000	
16.620000	16.625487	0.999670	0.000662	0.999338	0.000662	0.999338	1.385672e+20	33.300000	36.200000	
16.630000	16.635484	0.999670	0.000662	0.999338	0.000662	0.999338	1.387340e+20	33.300000	36.200000	
16.640000	16.645480	0.999671	0.000661	0.999339	0.000661	0.999339	1.389009e+20	33.300000	36.200000	
16.650000	16.655477	0.999671	0.000660	0.999340	0.000660	0.999340	1.390679e+20	33.300000	36.200000	
16.660000	16.665474	0.999672	0.000659	0.999341	0.000659	0.999341	1.392350e+20	33.300000	36.200000	
16.670000	16.675470	0.999672	0.000658	0.999342	0.000658	0.999342	1.394022e+20	33.300000	36.200000	
16.680000	16.685467	0.999672	0.000658	0.999342	0.000658	0.999342	1.395695e+20	33.300000	36.200000	
16.690000	16.695464	0.999673	0.000657	0.999343	0.000657	0.999343	1.397369e+20	33.300000	36.200000	
16.700000	16.705461	0.999673	0.000656	0.999344	0.000656	0.999344	1.399044e+20	33.300000	36.200000	
16.710000	16.715457	0.999674	0.000655	0.999345	0.000655	0.999345	1.400720e+20	33.300000	36.200000	
16.720000	16.725454	0.999674	0.000654	0.999346	0.000654	0.999346	1.402397e+20	33.300000	36.200000	
16.730000	16.735451	0.999674	0.000654	0.999346	0.000654	0.999346	1.404075e+20	33.300000	36.200000	
16.740000	16.745447	0.999675	0.000653	0.999347	0.000653	0.999347	1.405754e+20	33.300000	36.200000	
16.750000	16.755444	0.999675	0.000652	0.999348	0.000652	0.999348	1.407434e+20	33.300000	36.200000	
16.760000	16.765441	0.999675	0.000651	0.999349	0.000651	0.999349	1.409115e+20	33.300000	36.200000	
16.770000	16.775438	0.999676	0.000650	0.999350	0.000650	0.999350	1.410797e+20	33.300000	36.200000	
16.780000	16.785434	0.999676	0.000650	0.999350	0.000650	0.999350	1.412480e+20	33.300000	36.200000	
16.790000	16.795431	0.999677	0.000649	0.999351	0.000649	0.999351	1.414164e+20	33.300000	36.200000	
16.800000	16.805428	0.999677	0.000648	0.999352	0.000648	0.999352	1.415849e+20	33.300000	36.200000	
16.810000	16.815425	0.999677	0.000647	0.999353	0.000647	0.999353	1.417535e+20	33.300000	36.200000	
16.820000	16.825421	0.999678	0.000647	0.999353	0.000647	0.999353	1.419222e+20	33.300000	36.200000	
16.830000	16.835418	0.999678	0.000646	0.999354	0.000646	0.999354	1.420910e+20	33.300000	36.200000	
16.840000	16.845415	0.999679	0.000645	0.999355	0.000645	0.999355	1.422599e+20	33.300000	36.200000	
16.850000	16.855412	0.999679	0.000644	0.999356	0.000644	0.999356	1.424289e+20	33.300000	36.200000	
16.860000	16.865408	0.999679	0.000644	0.999356	0.000644	0.999356	1.425980e+20	33.300000	36.200000	
16.870000	16.875405	0.999680	0.000643	0.999357	0.000643	0.999357	1.427672e+20	33.300000	36.200000	
16.880000	16.885402	0.999680	0.000642	0.999358	0.000642	0.999358	1.429366e+20	33.300000	36.200000	
16.890000	16.895399	0.999680	0.000641	0.999359	0.000641	0.999359	1.431060e+20	33.300000	36.200000	
16.900000	16.905395	0.999681	0.000640	0.999360	0.000640	0.999360	1.432755e+20	33.300000	36.200000	
16.910000	16.915392	0.999681	0.000640	0.999360	0.000640	0.999360	1.434451e+20	33.300000	36.200000	
16.920000	16.925389	0.999682	0.000639	0.999361	0.000639	0.999361	1.436148e+20	33.300000	36.200000	
16.930000	16.935386	0.999682	0.000638	0.999362	0.000638	0.999362	1.437846e+20	33.300000	36.200000	
16.940000	16.945383	0.999682	0.000637	0.999363	0.000637	0.999363	1.439545e+20	33.300000	36.200000	
16.950000	16.955379	0.999683	0.000637	0.999363	0.000637	0.999363	1.441245e+20	33.300000	36.200000	
16.960000	16.965376	0.999683	0.000636	0.999364	0.000636	0.999364	1.442946e+20	33.300000	36.200000	
16.970000	16.975373	0.999683	0.000635	0.999365	0.000635	0.999365	1.444648e+20	33.300000	36.200000	
16.980000	16.985370	0.999684	0.000634	0.999366	0.000634	0.999366	1.446351e+20	33.300000	36.200000	
16.990000	16.995367	0.999684	0.000634	0.999366	0.000634	0.999366	1.448055e+20	33.300000	36.200000	
17.000000	17.005364	0.999685	0.000633	0.999367	0.000633	0.999367	1.449760e+20	33.300000	36.200000	
17.010000	17.015360	0.999685	0.000632	0.999368	0.000632	0.999368	1.451467e+20	33.300000	36.200000	
17.020000	17.025357	0.999685	0.000631	0.999369	0.000631	0.999369	1.453174e+20	33.300000	36.200000	
17.030000	17.035354	0.999686	0.000631	0.999369	0.000631	0.999369	1.454882e+20	33.300000	36.200000	
17.040000	17.045351	0.999686	0.000630	0.999370	0.000630	0.999370	1.456591e+20	33.300000	36.200000	
17.050000	17.055348	0.999686	0.000629	0.999371	0.000629	0.999371	1.458301e+20	33.300000	36.200000	
17.060000	17.065345	0.999687	0.000628	0.999372	0.000628	0.999372	1.460012e+20	33.300000	36.200000	
17.070000	17.075341	0.999687	0.000628	0.999372	0.000628	0.999372	1.461724e+20	33.300000	36.200000	
17.080000	17.085338	0.999688	0.000627	0.999373	0.000627	0.999373	1.463437e+20	33.300000	36.200000	
17.090000	17.095335	0.999688	0.000626	0.999374	0.000626	0.999374	1.465152e+20	33.300000	36.200000	
17.100000	17.105332	0.999688	0.000625	0.999375	0.000625	0.999375	1.466867e+20	33.300000	36.200000	
17.110000	17.115329	0.999689	0.000625	0.999375	0.000625	0.999375	1.468583e+20	33.300000	36.200000	
17.120000	17.125326	0.999689	0.000624	0.999376	0.000624	0.999376	1.470300e+20	33.300000	36.200000	
17.130000	17.135323	0.999689	0.000623	0.999377	0.000623	0.999377	1.472018e+20	33.300000	36.200000	
17.140000	17.145319	0.999690	0.000623	0.999377	0.000623	0.999377	1.473737e+20	33.300000	36.200000	
17.150000	17.155316	0.999690	0.000622	0.999378	0.000622	0.999378	1.475457e+20	33.300000	36.200000	
17.160000	17.165313	0.999690	0.000621	0.999379	0.000621	0.999379	1.477179e+20	33.300000	36.200000	
17.170000	17.175310	0.999691	0.000620	0.999380	0.000620	0.999380	1.478901e+20	33.300000	36.200000	
17.180000	17.185307	0.999691	0.000620	0.999380	0.000620	0.999380	1.480624e+20	33.300000	36.200000	
17.190000	17.195304	0.999692	0.000619	0.999381	0.000619	0.999381	1.482348e+20	33.300000	36.200000	
17.200000	17.205301	0.999692	0.000618	0.999382	0.000618	0.999382	1.484073e+20	33.300000	36.200000	
17.210000	17.215298	0.999692	0.000617	0.999383	0.000617	0.999383	1.485799e+20	33.300000	36.200000	
17.220000	17.225295	0.999693	0.000617	0.999383	0.000617	0.999383	1.487527e+20	33.300000	36.200000	
17.230000	17.235291	0.999693	0.000616	0.999384	0.000616	0.999384	1.489255e+20	33.300000	36.200000	
17.240000	17.245288	0.999693	0.000615	0.999385	0.000615	0.999385	1.490984e+20	33.300000	36.200000	
17.250000	17.255285	0.999694	0.000615	0.999385	0.000615	0.999385	1.492714e+20	33.300000	36.200000	
17.260000	17.265282	0.999694	0.000614	0.999386	0.000614	0.999386	1.494445e+20	33.300000	36.200000	
17.270000	17.275279	0.999694	0.000613	0.999387	0.000613	0.999387	1.496177e+20	33.300000	36.200000	
17.280000	17.285276	0.999695	0.000612	0.999388	0.000612	0.999388	1.497911e+20	33.300000	36.200000	
17.290000	17.295273	0.999695	0.000612	0.999388	0.000612	0.999388	1.499645e+20	33.300000	36.200000	
17.300000	17.305270	0.999695	0.000611	0.999389	0.000611	0.999389	1.501380e+20	33.300000	36.200000	
17.310000	17.315267	0.999696	0.000610	0.999390	0.000610	0.999390	1.503116e+20	33.300000	36.200000	
17.320000	17.325264	0.999696	0.000610	0.999390	0.000610	0.999390	1.504853e+20	33.300000	36.200000	
17.330000	17.335261	0.999697	0.000609	0.999391	0.000609	0.999391	1.506592e+20	33.300000	36.200000	
17.340000	17.345258	0.999697	0.000608	0.999392	0.000608	0.999392	1.508331e+20	33.300000	36.200000	
17.350000	17.355255	0.999697	0.000607	0.999393	0.000607	0.999393	1.510071e+20	33.300000	36.200000	
17.360000	17.365252	0.999698	0.000607	0.999393	0.000607	0.999393	1.511812e+20	33.300000	36.200000	
17.370000	17.375249	0.999698	0.000606	0.999394	0.000606	0.999394	1.513554e+20	33.300000	36.200000	
17.380000	17.385246	0.999698	0.000605	0.999395	0.000605	0.999395	1.515298e+20	33.300000	36.200000	
17.390000	17.395242	0.999699	0.000605	0.999395	0.000605	0.999395	1.517042e+20	33.300000	36.200000	
17.400000	17.405239	0.999699	0.000604	0.999396	0.000604	0.999396	1.518787e+20	33.300000	36.200000	
17.410000	17.415236	0.999699	0.000603	0.999397	0.000603	0.999397	1.520533e+20	33.300000	36.200000	
17.420000	17.425233	0.999700	0.000603	0.999397	0.000603	0.999397	1.522281e+20	33.300000	36.200000	
17.430000	17.435230	0.999700	0.000602	0.999398	0.000602	0.999398	1.524029e+20	33.300000	36.200000	
17.440000	17.445227	0.999700	0.000601	0.999399	0.000601	0.999399	1.525778e+20	33.300000	36.200000	
17.450000	17.455224	0.999701	0.000600	0.999400	0.000600	0.999400	1.527528e+20	33.300000	36.200000	
17.460000	17.465221	0.999701	0.000600	0.999400	0.000600	0.999400	1.529280e+20	33.300000	36.200000	
17.470000	17.475218	0.999701	0.000599	0.999401	0.000599	0.999401	1.531032e+20	33.300000	36.200000	
17.480000	17.485215	0.999702	0.000598	0.999402	0.000598	0.999402	1.532785e+20	33.300000	36.200000	
17.490000	17.495212	0.999702	0.000598	0.999402	0.000598	0.999402	1.534539e+20	33.300000	36.200000	
17.500000	17.505209	0.999702	0.000597	0.999403	0.000597	0.999403	1.536295e+20	33.300000	36.200000	
17.510000	17.515206	0.999703	0.000596	0.999404	0.000596	0.999404	1.538051e+20	33.300000	36.200000	
17.520000	17.525203	0.999703	0.000596	0.999404	0.000596	0.999404	1.539808e+20	33.300000	36.200000	
17.530000	17.535200	0.999703	0.000595	0.999405	0.000595	0.999405	1.541566e+20	33.300000	36.200000	
17.540000	17.545197	0.999704	0.000594	0.999406	0.000594	0.999406	1.543326e+20	33.300000	36.200000	
17.550000	17.555194	0.999704	0.000594	0.999406	0.000594	0.999406	1.545086e+20	33.300000	36.200000	
17.560000	17.565191	0.999704	0.000593	0.999407	0.000593	0.999407	1.546847e+20	33.300000	36.200000	
17.570000	17.575188	0.999705	0.000592	0.999408	0.000592	0.999408	1.548610e+20	33.300000	36.200000	
17.580000	17.585185	0.999705	0.000592	0.999408	0.000592	0.999408	1.550373e+20	33.300000	36.200000	
17.590000	17.595183	0.999705	0.000591	0.999409	0.000591	0.999409	1.552137e+20	33.300000	36.200000	
17.600000	17.605180	0.999706	0.000590	0.999410	0.000590	0.999410	1.553902e+20	33.300000	36.200000	
17.610000	17.615177	0.999706	0.000590	0.999410	0.000590	0.999410	1.555669e+20	33.300000	36.200000	
17.620000	17.625174	0.999706	0.000589	0.999411	0.000589	0.999411	1.557436e+20	33.300000	36.200000	
17.630000	17.635171	0.999707	0.000588	0.999412	0.000588	0.999412	1.559204e+20	33.300000	36.200000	
17.640000	17.645168	0.999707	0.000588	0.999412	0.000588	0.999412	1.560974e+20	33.300000	36.200000	
17.650000	17.655165	0.999707	0.000587	0.999413	0.000587	0.999413	1.562744e+20	33.300000	36.200000	
17.660000	17.665162	0.999708	0.000586	0.999414	0.000586	0.999414	1.564515e+20	33.300000	36.200000	
17.670000	17.675159	0.999708	0.000586	0.999414	0.000586	0.999414	1.566288e+20	33.300000	36.200000	
17.680000	17.685156	0.999708	0.000585	0.999415	0.000585	0.999415	1.568061e+20	33.300000	36.200000	
17.690000	17.695153	0.999709	0.000584	0.999416	0.000584	0.999416	1.569835e+20	33.300000	36.200000	
17.700000	17.705150	0.999709	0.000584	0.999416	0.000584	0.999416	1.571611e+20	33.300000	36.200000	
17.710000	17.715147	0.999709	0.000583	0.999417	0.000583	0.999417	1.573387e+20	33.300000	36.200000	
17.720000	17.725144	0.999710	0.000582	0.999418	0.000582	0.999418	1.575164e+20	33.300000	36.200000	
17.730000	17.735141	0.999710	0.000582	0.999418	0.000582	0.999418	1.576943e+20	33.300000	36.200000	
17.740000	17.745138	0.999710	0.000581	0.999419	0.000581	0.999419	1.578722e+20	33.300000	36.200000	
17.750000	17.755136	0.999711	0.000580	0.999420	0.000580	0.999420	1.580502e+20	33.300000	36.200000	
17.760000	17.765133	0.999711	0.000580	0.999420	0.000580	0.999420	1.582284e+20	33.300000	36.200000	
17.770000	17.775130	0.999711	0.000579	0.999421	0.000579	0.999421	1.584066e+20	33.300000	36.200000	
17.780000	17.785127	0.999712	0.000578	0.999422	0.000578	0.999422	1.585849e+20	33.300000	36.200000	
17.790000	17.795124	0.999712	0.000578	0.999422	0.000578	0.999422	1.587634e+20	33.300000	36.200000	
17.800000	17.805121	0.999712	0.000577	0.999423	0.000577	0.999423	1.589419e+20	33.300000	36.200000	
17.810000	17.815118	0.999713	0.000576	0.999424	0.000576	0.999424	1.591205e+20	33.300000	36.200000	
17.820000	17.825115	0.999713	0.000576	0.999424	0.000576	0.999424	1.592993e+20	33.300000	36.200000	
17.830000	17.835112	0.999713	0.000575	0.999425	0.000575	0.999425	1.594781e+20	33.300000	36.200000	
17.840000	17.845109	0.999714	0.000574	0.999426	0.000574	0.999426	1.596571e+20	33.300000	36.200000	
17.850000	17.855107	0.999714	0.000574	0.999426	0.000574	0.999426	1.598361e+20	33.300000	36.200000	
17.860000	17.865104	0.999714	0.000573	0.999427	0.000573	0.999427	1.600152e+20	33.300000	36.200000	
17.870000	17.875101	0.999715	0.000572	0.999428	0.000572	0.999428	1.601945e+20	33.300000	36.200000	
17.880000	17.885098	0.999715	0.000572	0.999428	0.000572	0.999428	1.603738e+20	33.300000	36.200000	
17.890000	17.895095	0.999715	0.000571	0.999429	0.000571	0.999429	1.605532e+20	33.300000	36.200000	
17.900000	17.905092	0.999716	0.000570	0.999430	0.000570	0.999430	1.607328e+20	33.300000	36.200000	
17.910000	17.915089	0.999716	0.000570	0.999430	0.000570	0.999430	1.609124e+20	33.300000	36.200000	
17.920000	17.925086	0.999716	0.000569	0.999431	0.000569	0.999431	1.610922e+20	33.300000	36.200000	
17.930000	17.935084	0.999717	0.000569	0.999431	0.000569	0.999431	1.612720e+20	33.300000	36.200000	
17.940000	17.945081	0.999717	0.000568	0.999432	0.000568	0.999432	1.614520e+20	33.300000	36.200000	
17.950000	17.955078	0.999717	0.000567	0.999433	0.000567	0.999433	1.616320e+20	33.300000	36.200000	
17.960000	17.965075	0.999718	0.000567	0.999433	0.000567	0.999433	1.618121e+20	33.300000	36.200000	
17.970000	17.975072	0.999718	0.000566	0.999434	0.000566	0.999434	1.619924e+20	33.300000	36.200000	
17.980000	17.985069	0.999718	0.000565	0.999435	0.000565	0.999435	1.621727e+20	33.300000	36.200000	
17.990000	17.995067	0.999718	0.000565	0.999435	0.000565	0.999435	1.623532e+20	33.300000	36.200000	
18.000000	18.005064	0.999719	0.000564	0.999436	0.000564	0.999436	1.625337e+20	33.300000	36.200000	
18.010000	18.015061	0.999719	0.000564	0.999436	0.000564	0.999436	1.627143e+20	33.300000	36.200000	
18.020000	18.025058	0.999719	0.000563	0.999437	0.000563	0.999437	1.628951e+20	33.300000	36.200000	
18.030000	18.035055	0.999720	0.000562	0.999438	0.000562	0.999438	1.630759e+20	33.300000	36.200000	
18.040000	18.045052	0.999720	0.000562	0.999438	0.000562	0.999438	1.632569e+20	33.300000	36.200000	
18.050000	18.055050	0.999720	0.000561	0.999439	0.000561	0.999439	1.634379e+20	33.300000	36.200000	
18.060000	18.065047	0.999721	0.000560	0.999440	0.000560	0.999440	1.636191e+20	33.300000	36.200000	
18.070000	18.075044	0.999721	0.000560	0.999440	0.000560	0.999440	1.638003e+20	33.300000	36.200000	
18.080000	18.085041	0.999721	0.000559	0.999441	0.000559	0.999441	1.639817e+20	33.300000	36.200000	
18.090000	18.095038	0.999722	0.000559	0.999441	0.000559	0.999441	1.641631e+20	33.300000	36.200000	
18.100000	18.105036	0.999722	0.000558	0.999442	0.000558	0.999442	1.643446e+20	33.300000	36.200000	
18.110000	18.115033	0.999722	0.000557	0.999443	0.000557	0.999443	1.645263e+20	33.300000	36.200000	
18.120000	18.125030	0.999722	0.000557	0.999443	0.000557	0.999443	1.647080e+20	33.300000	36.200000	
18.130000	18.135027	0.999723	0.000556	0.999444	0.000556	0.999444	1.648899e+20	33.300000	36.200000	
18.140000	18.145024	0.999723	0.000555	0.999445	0.000555	0.999445	1.650718e+20	33.300000	36.200000	
18.150000	18.155022	0.999723	0.000555	0.999445	0.000555	0.999445	1.652539e+20	33.300000	36.200000	
18.160000	18.165019	0.999724	0.000554	0.999446	0.000554	0.999446	1.654360e+20	33.300000	36.200000	
18.170000	18.175016	0.999724	0.000554	0.999446	0.000554	0.999446	1.656183e+20	33.300000	36.200000	
18.180000	18.185013	0.999724	0.000553	0.999447	0.000553	0.999447	1.658006e+20	33.300000	36.200000	
18.190000	18.195011	0.999725	0.000552	0.999448	0.000552	0.999448	1.659831e+20	33.300000	36.200000	
18.200000	18.205008	0.999725	0.000552	0.999448	0.000552	0.999448	1.661656e+20	33.300000	36.200000	
18.210000	18.215005	0.999725	0.000551	0.999449	0.000551	0.999449	1.663483e+20	33.300000	36.200000	
18.220000	18.225002	0.999726	0.000551	0.999449	0.000551	0.999449	1.665310e+20	33.300000	36.200000	
18.230000	18.234999	0.999726	0.000550	0.999450	0.000550	0.999450	1.667139e+20	33.300000	36.200000	
18.240000	18.244997	0.999726	0.000549	0.999451	0.000549	0.999451	1.668968e+20	33.300000	36.200000	
18.250000	18.254994	0.999726	0.000549	0.999451	0.000549	0.999451	1.670799e+20	33.300000	36.200000	
18.260000	18.264991	0.999727	0.000548	0.999452	0.000548	0.999452	1.672630e+20	33.300000	36.200000	
18.270000	18.274988	0.999727	0.000547	0.999453	0.000547	0.999453	1.674463e+20	33.300000	36.200000	
18.280000	18.284986	0.999727	0.000547	0.999453	0.000547	0.999453	1.676296e+20	33.300000	36.200000	
18.290000	18.294983	0.999728	0.000546	0.999454	0.000546	0.999454	1.678131e+20	33.300000	36.200000	
18.300000	18.304980	0.999728	0.000546	0.999454	0.000546	0.999454	1.679966e+20	33.300000	36.200000	
18.310000	18.314978	0.999728	0.000545	0.999455	0.000545	0.999455	1.681803e+20	33.300000	36.200000	
18.320000	18.324975	0.999729	0.000544	0.999456	0.000544	0.999456	1.683640e+20	33.300000	36.200000	
18.330000	18.334972	0.999729	0.000544	0.999456	0.000544	0.999456	1.685479e+20	33.300000	36.200000	
18.340000	18.344969	0.999729	0.000543	0.999457	0.000543	0.999457	1.687319e+20	33.300000	36.200000	
18.350000	18.354967	0.999729	0.000543	0.999457	0.000543	0.999457	1.689159e+20	33.300000	36.200000	
18.360000	18.364964	0.999730	0.000542	0.999458	0.000542	0.999458	1.691001e+20	33.300000	36.200000	
18.370000	18.374961	0.999730	0.000542	0.999458	0.000542	0.999458	1.692843e+20	33.300000	36.200000	
18.380000	18.384958	0.999730	0.000541	0.999459	0.000541	0.999459	1.694687e+20	33.300000	36.200000	
18.390000	18.394956	0.999731	0.000540	0.999460	0.000540	0.999460	1.696531e+20	33.300000	36.200000	
18.400000	18.404953	0.999731	0.000540	0.999460	0.000540	0.999460	1.698377e+20	33.300000	36.200000	
18.410000	18.414950	0.999731	0.000539	0.999461	0.000539	0.999461	1.700223e+20	33.300000	36.200000	
18.420000	18.424948	0.999731	0.000539	0.999461	0.000539	0.999461	1.702071e+20	33.300000	36.200000	
18.430000	18.434945	0.999732	0.000538	0.999462	0.000538	0.999462	1.703920e+20	33.300000	36.200000	
18.440000	18.444942	0.999732	0.000537	0.999463	0.000537	0.999463	1.705769e+20	33.300000	36.200000	
18.450000	18.454940	0.999732	0.000537	0.999463	0.000537	0.999463	1.707620e+20	33.300000	36.200000	
18.460000	18.464937	0.999733	0.000536	0.999464	0.000536	0.999464	1.709471e+20	33.300000	36.200000	
18.470000	18.474934	0.999733	0.000536	0.999464	0.000536	0.999464	1.711324e+20	33.300000	36.200000	
18.480000	18.484931	0.999733	0.000535	0.999465	0.000535	0.999465	1.713177e+20	33.300000	36.200000	
18.490000	18.494929	0.999734	0.000534	0.999466	0.000534	0.999466	1.715032e+20	33.300000	36.200000	
18.500000	18.504926	0.999734	0.000534	0.999466	0.000534	0.999466	1.716888e+20	33.300000	36.200000	
18.510000	18.514923	0.999734	0.000533	0.999467	0.000533	0.999467	1.718744e+20	33.300000	36.200000	
18.520000	18.524921	0.999734	0.000533	0.999467	0.000533	0.999467	1.720602e+20	33.300000	36.200000	
18.530000	18.534918	0.999735	0.000532	0.999468	0.000532	0.999468	1.722460e+20	33.300000	36.200000	
18.540000	18.544915	0.999735	0.000532	0.999468	0.000532	0.999468	1.724320e+20	33.300000	36.200000	
18.550000	18.554913	0.999735	0.000531	0.999469	0.000531	0.999469	1.726181e+20	33.300000	36.200000	
18.560000	18.564910	0.999736	0.000530	0.999470	0.000530	0.999470	1.728042e+20	33.300000	36.200000	
18.570000	18.574907	0.999736	0.000530	0.999470	0.000530	0.999470	1.729905e+20	33.300000	36.200000	
18.580000	18.584905	0.999736	0.000529	0.999471	0.000529	0.999471	1.731769e+20	33.300000	36.200000	
18.590000	18.594902	0.999736	0.000529	0.999471	0.000529	0.999471	1.733633e+20	33.300000	36.200000	
18.600000	18.604899	0.999737	0.000528	0.999472	0.000528	0.999472	1.735499e+20	33.300000	36.200000	
18.610000	18.614897	0.999737	0.000528	0.999472	0.000528	0.999472	1.737365e+20	33.300000	36.200000	
18.620000	18.624894	0.999737	0.000527	0.999473	0.000527	0.999473	1.739233e+20	33.300000	36.200000	
18.630000	18.634892	0.999738	0.000526	0.999474	0.000526	0.999474	1.741102e+20	33.300000	36.200000	
18.640000	18.644889	0.999738	0.000526	0.999474	0.000526	0.999474	1.742971e+20	33.300000	36.200000	
18.650000	18.654886	0.999738	0.000525	0.999475	0.000525	0.999475	1.744842e+20	33.300000	36.200000	
18.660000	18.664884	0.999738	0.000525	0.999475	0.000525	0.999475	1.746714e+20	33.300000	36.200000	
18.670000	18.674881	0.999739	0.000524	0.999476	0.000524	0.999476	1.748586e+20	33.300000	36.200000	
18.680000	18.684878	0.999739	0.000524	0.999476	0.000524	0.999476	1.750460e+20	33.300000	36.200000	
18.690000	18.694876	0.999739	0.000523	0.999477	0.000523	0.999477	1.752335e+20	33.300000	36.200000	
18.700000	18.704873	0.999739	0.000522	0.999478	0.000522	0.999478	1.754210e+20	33.300000	36.200000	
18.710000	18.714871	0.999740	0.000522	0.999478	0.000522	0.999478	1.756087e+20	33.300000	36.200000	
18.720000	18.724868	0.999740	0.000521	0.999479	0.000521	0.999479	1.757965e+20	33.300000	36.200000	
18.730000	18.734865	0.999740	0.000521	0.999479	0.000521	0.999479	1.759843e+20	33.300000	36.200000	
18.740000	18.744863	0.999741	0.000520	0.999480	0.000520	0.999480	1.761723e+20	33.300000	36.200000	
18.750000	18.754860	0.999741	0.000520	0.999480	0.000520	0.999480	1.763604e+20	33.300000	36.200000	
18.760000	18.764857	0.999741	0.000519	0.999481	0.000519	0.999481	1.765485e+20	33.300000	36.200000	
18.770000	18.774855	0.999741	0.000519	0.999481	0.000519	0.999481	1.767368e+20	33.300000	36.200000	
18.780000	18.784852	0.999742	0.000518	0.999482	0.000518	0.999482	1.769252e+20	33.300000	36.200000	
18.790000	18.794850	0.999742	0.000517	0.999483	0.000517	0.999483	1.771136e+20	33.300000	36.200000	
18.800000	18.804847	0.999742	0.000517	0.999483	0.000517	0.999483	1.773022e+20	33.300000	36.200000	
18.810000	18.814844	0.999743	0.000516	0.999484	0.000516	0.999484	1.774909e+20	33.300000	36.200000	
18.820000	18.824842	0.999743	0.000516	0.999484	0.000516	0.999484	1.776796e+20	33.300000	36.200000	
18.830000	18.834839	0.999743	0.000515	0.999485	0.000515	0.999485	1.778685e+20	33.300000	36.200000	
18.840000	18.844837	0.999743	0.000515	0.999485	0.000515	0.999485	1.780575e+20	33.300000	36.200000	
18.850000	18.854834	0.999744	0.000514	0.999486	0.000514	0.999486	1.782465e+20	33.300000	36.200000	
18.860000	18.864832	0.999744	0.000514	0.999486	0.000514	0.999486	1.784357e+20	33.300000	36.200000	
18.870000	18.874829	0.999744	0.000513	0.999487	0.000513	0.999487	1.786250e+20	33.300000	36.200000	
18.880000	18.884826	0.999744	0.000513	0.999487	0.000513	0.999487	1.788144e+20	33.300000	36.200000	
18.890000	18.894824	0.999745	0.000512	0.999488	0.000512	0.999488	1.790038e+20	33.300000	36.200000	
18.900000	18.904821	0.999745	0.000511	0.999489	0.000511	0.999489	1.791934e+20	33.300000	36.200000	
18.910000	18.914819	0.999745	0.000511	0.999489	0.000511	0.999489	1.793831e+20	33.300000	36.200000	
18.920000	18.924816	0.999746	0.000510	0.999490	0.000510	0.999490	1.795729e+20	33.300000	36.200000	
18.930000	18.934814	0.999746	0.000510	0.999490	0.000510	0.999490	1.797627e+20	33.300000	36.200000	
18.940000	18.944811	0.999746	0.000509	0.999491	0.000509	0.999491	1.799527e+20	33.300000	36.200000	
18.950000	18.954809	0.999746	0.000509	0.999491	0.000509	0.999491	1.801428e+20	33.300000	36.200000	
18.960000	18.964806	0.999747	0.000508	0.999492	0.000508	0.999492	1.803329e+20	33.300000	36.200000	
18.970000	18.974803	0.999747	0.000508	0.999492	0.000508	0.999492	1.805232e+20	33.300000	36.200000	
18.980000	18.984801	0.999747	0.000507	0.999493	0.000507	0.999493	1.807136e+20	33.300000	36.200000	
18.990000	18.994798	0.999747	0.000507	0.999493	0.000507	0.999493	1.809041e+20	33.300000	36.200000	
19.000000	19.004796	0.999748	0.000506	0.999494	0.000506	0.999494	1.810947e+20	33.300000	36.200000	
19.010000	19.014793	0.999748	0.000505	0.999495	0.000505	0.999495	1.812853e+20	33.300000	36.200000	
19.020000	19.024791	0.999748	0.000505	0.999495	0.000505	0.999495	1.814761e+20	33.300000	36.200000	
19.030000	19.034788	0.999748	0.000504	0.999496	0.000504	0.999496	1.816670e+20	33.300000	36.200000	
19.040000	19.044786	0.999749	0.000504	0.999496	0.000504	0.999496	1.818580e+20	33.300000	36.200000	
19.050000	19.054783	0.999749	0.000503	0.999497	0.000503	0.999497	1.820490e+20	33.300000	36.200000	
19.060000	19.064781	0.999749	0.000503	0.999497	0.000503	0.999497	1.822402e+20	33.300000	36.200000	
19.070000	19.074778	0.999750	0.000502	0.999498	0.000502	0.999498	1.824315e+20	33.300000	36.200000	
19.080000	19.084776	0.999750	0.000502	0.999498	0.000502	0.999498	1.826229e+20	33.300000	36.200000	
19.090000	19.094773	0.999750	0.000501	0.999499	0.000501	0.999499	1.828143e+20	33.300000	36.200000	
19.100000	19.104771	0.999750	0.000501	0.999499	0.000501	0.999499	1.830059e+20	33.300000	36.200000	
19.110000	19.114768	0.999751	0.000500	0.999500	0.000500	0.999500	1.831976e+20	33.300000	36.200000	
19.120000	19.124766	0.999751	0.000500	0.999500	0.000500	0.999500	1.833894e+20	33.300000	36.200000	
19.130000	19.134763	0.999751	0.000499	0.999501	0.000499	0.999501	1.835813e+20	33.300000	36.200000	
19.140000	19.144761	0.999751	0.000499	0.999501	0.000499	0.999501	1.837732e+20	33.300000	36.200000	
19.150000	19.154758	0.999752	0.000498	0.999502	0.000498	0.999502	1.839653e+20	33.300000	36.200000	
19.160000	19.164756	0.999752	0.000498	0.999502	0.000498	0.999502	1.841575e+20	33.300000	36.200000	
19.170000	19.174753	0.999752	0.000497	0.999503	0.000497	0.999503	1.843498e+20	33.300000	36.200000	
19.180000	19.184751	0.999752	0.000497	0.999503	0.000497	0.999503	1.845422e+20	33.300000	36.200000	
19.190000	19.194748	0.999753	0.000496	0.999504	0.000496	0.999504	1.847347e+20	33.300000	36.200000	
19.200000	19.204746	0.999753	0.000495	0.999505	0.000495	0.999505	1.849272e+20	33.300000	36.200000	
19.210000	19.214743	0.999753	0.000495	0.999505	0.000495	0.999505	1.851199e+20	33.300000	36.200000	
19.220000	19.224741	0.999753	0.000494	0.999506	0.000494	0.999506	1.853127e+20	33.300000	36.200000	
19.230000	19.234738	0.999754	0.000494	0.999506	0.000494	0.999506	1.855056e+20	33.300000	36.200000	
19.240000	19.244736	0.999754	0.000493	0.999507	0.000493	0.999507	1.856986e+20	33.300000	36.200000	
19.250000	19.254733	0.999754	0.000493	0.999507	0.000493	0.999507	1.858917e+20	33.300000	36.200000	
19.260000	19.264731	0.999754	0.000492	0.999508	0.000492	0.999508	1.860848e+20	33.300000	36.200000	
19.270000	19.274728	0.999755	0.000492	0.999508	0.000492	0.999508	1.862781e+20	33.300000	36.200000	
19.280000	19.284726	0.999755	0.000491	0.999509	0.000491	0.999509	1.864715e+20	33.300000	36.200000	
19.290000	19.294723	0.999755	0.000491	0.999509	0.000491	0.999509	1.866650e+20	33.300000	36.200000	
19.300000	19.304721	0.999755	0.000490	0.999510	0.000490	0.999510	1.868586e+20	33.300000	36.200000	
19.310000	19.314718	0.999756	0.000490	0.999510	0.000490	0.999510	1.870523e+20	33.300000	36.200000	
19.320000	19.324716	0.999756	0.000489	0.999511	0.000489	0.999511	1.872460e+20	33.300000	36.200000	
19.330000	19.334713	0.999756	0.000489	0.999511	0.000489	0.999511	1.874399e+20	33.300000	36.200000	
19.340000	19.344711	0.999756	0.000488	0.999512	0.000488	0.999512	1.876339e+20	33.300000	36.200000	
19.350000	19.354709	0.999757	0.000488	0.999512	0.000488	0.999512	1.878280e+20	33.300000	36.200000	
19.360000	19.364706	0.999757	0.000487	0.999513	0.000487	0.999513	1.880222e+20	33.300000	36.200000	
19.370000	19.374704	0.999757	0.000487	0.999513	0.000487	0.999513	1.882165e+20	33.300000	36.200000	
19.380000	19.384701	0.999757	0.000486	0.999514	0.000486	0.999514	1.884109e+20	33.300000	36.200000	
19.390000	19.394699	0.999758	0.000486	0.999514	0.000486	0.999514	1.886054e+20	33.300000	36.200000	
19.400000	19.404696	0.999758	0.000485	0.999515	0.000485	0.999515	1.888000e+20	33.300000	36.200000	
19.410000	19.414694	0.999758	0.000485	0.999515	0.000485	0.999515	1.889946e+20	33.300000	36.200000	
19.420000	19.424692	0.999758	0.000484	0.999516	0.000484	0.999516	1.891894e+20	33.300000	36.200000	
19.430000	19.434689	0.999759	0.000484	0.999516	0.000484	0.999516	1.893843e+20	33.300000	36.200000	
19.440000	19.444687	0.999759	0.000483	0.999517	0.000483	0.999517	1.895793e+20	33.300000	36.200000	
19.450000	19.454684	0.999759	0.000483	0.999517	0.000483	0.999517	1.897744e+20	33.300000	36.200000	
19.460000	19.464682	0.999759	0.000482	0.999518	0.000482	0.999518	1.899696e+20	33.300000	36.200000	
19.470000	19.474679	0.999760	0.000482	0.999518	0.000482	0.999518	1.901649e+20	33.300000	36.200000	
19.480000	19.484677	0.999760	0.000481	0.999519	0.000481	0.999519	1.903603e+20	33.300000	36.200000	
19.490000	19.494675	0.999760	0.000481	0.999519	0.000481	0.999519	1.905558e+20	33.300000	36.200000	
19.500000	19.504672	0.999760	0.000480	0.999520	0.000480	0.999520	1.907514e+20	33.300000	36.200000	
19.510000	19.514670	0.999761	0.000480	0.999520	0.000480	0.999520	1.909471e+20	33.300000	36.200000	
19.520000	19.524667	0.999761	0.000479	0.999521	0.000479	0.999521	1.911428e+20	33.300000	36.200000	
19.530000	19.534665	0.999761	0.000479	0.999521	0.000479	0.999521	1.913387e+20	33.300000	36.200000	
19.540000	19.544663	0.999761	0.000478	0.999522	0.000478	0.999522	1.915347e+20	33.300000	36.200000	
19.550000	19.554660	0.999762	0.000478	0.999522	0.000478	0.999522	1.917308e+20	33.300000	36.200000	
19.560000	19.564658	0.999762	0.000477	0.999523	0.000477	0.999523	1.919270e+20	33.300000	36.200000	
19.570000	19.574655	0.999762	0.000477	0.999523	0.000477	0.999523	1.921233e+20	33.300000	36.200000	
19.580000	19.584653	0.999762	0.000476	0.999524	0.000476	0.999524	1.923197e+20	33.300000	36.200000	
19.590000	19.594651	0.999763	0.000476	0.999524	0.000476	0.999524	1.925162e+20	33.300000	36.200000	
19.600000	19.604648	0.999763	0.000475	0.999525	0.000475	0.999525	1.927128e+20	33.300000	36.200000	
19.610000	19.614646	0.999763	0.000475	0.999525	0.000475	0.999525	1.929095e+20	33.300000	36.200000	
19.620000	19.624643	0.999763	0.000474	0.999526	0.000474	0.999526	1.931063e+20	33.300000	36.200000	
19.630000	19.634641	0.999764	0.000474	0.999526	0.000474	0.999526	1.933032e+20	33.300000	36.200000	
19.640000	19.644639	0.999764	0.000473	0.999527	0.000473	0.999527	1.935002e+20	33.300000	36.200000	
19.650000	19.654636	0.999764	0.000473	0.999527	0.000473	0.999527	1.936973e+20	33.300000	36.200000	
19.660000	19.664634	0.999764	0.000472	0.999528	0.000472	0.999528	1.938945e+20	33.300000	36.200000	
19.670000	19.674632	0.999765	0.000472	0.999528	0.000472	0.999528	1.940918e+20	33.300000	36.200000	
19.680000	19.684629	0.999765	0.000472	0.999528	0.000472	0.999528	1.942892e+20	33.300000	36.200000	
19.690000	19.694627	0.999765	0.000471	0.999529	0.000471	0.999529	1.944867e+20	33.300000	36.200000	
19.700000	19.704625	0.999765	0.000471	0.999529	0.000471	0.999529	1.946843e+20	33.300000	36.200000	
19.710000	19.714622	0.999766	0.000470	0.999530	0.000470	0.999530	1.948820e+20	33.300000	36.200000	
19.720000	19.724620	0.999766	0.000470	0.999530	0.000470	0.999530	1.950798e+20	33.300000	36.200000	
19.730000	19.734617	0.999766	0.000469	0.999531	0.000469	0.999531	1.952777e+20	33.300000	36.200000	
19.740000	19.744615	0.999766	0.000469	0.999531	0.000469	0.999531	1.954757e+20	33.300000	36.200000	
19.750000	19.754613	0.999766	0.000468	0.999532	0.000468	0.999532	1.956738e+20	33.300000	36.200000	
19.760000	19.764610	0.999767	0.000468	0.999532	0.000468	0.999532	1.958720e+20	33.300000	36.200000	
19.770000	19.774608	0.999767	0.000467	0.999533	0.000467	0.999533	1.960703e+20	33.300000	36.200000	
19.780000	19.784606	0.999767	0.000467	0.999533	0.000467	0.999533	1.962687e+20	33.300000	36.200000	
19.790000	19.794603	0.999767	0.000466	0.999534	0.000466	0.999534	1.964672e+20	33.300000	36.200000	
19.800000	19.804601	0.999768	0.000466	0.999534	0.000466	0.999534	1.966658e+20	33.300000	36.200000	
19.810000	19.814599	0.999768	0.000465	0.999535	0.000465	0.999535	1.968645e+20	33.300000	36.200000	
19.820000	19.824596	0.999768	0.000465	0.999535	0.000465	0.999535	1.970633e+20	33.300000	36.200000	
19.830000	19.834594	0.999768	0.000464	0.999536	0.000464	0.999536	1.972622e+20	33.300000	36.200000	
19.840000	19.844592	0.999769	0.000464	0.999536	0.000464	0.999536	1.974612e+20	33.300000	36.200000	
19.850000	19.854589	0.999769	0.000463	0.999537	0.000463	0.999537	1.976603e+20	33.300000	36.200000	
19.860000	19.864587	0.999769	0.000463	0.999537	0.000463	0.999537	1.978595e+20	33.300000	36.200000	
19.870000	19.874585	0.999769	0.000462	0.999538	0.000462	0.999538	1.980588e+20	33.300000	36.200000	
19.880000	19.884582	0.999770	0.000462	0.999538	0.000462	0.999538	1.982582e+20	33.300000	36.200000	
19.890000	19.894580	0.999770	0.000462	0.999538	0.000462	0.999538	1.984577e+20	33.300000	36.200000	
19.900000	19.904578	0.999770	0.000461	0.999539	0.000461	0.999539	1.986573e+20	33.300000	36.200000	
19.910000	19.914576	0.999770	0.000461	0.999539	0.000461	0.999539	1.988570e+20	33.300000	36.200000	
19.920000	19.924573	0.999770	0.000460	0.999540	0.000460	0.999540	1.990568e+20	33.300000	36.200000	
19.930000	19.934571	0.999771	0.000460	0.999540	0.000460	0.999540	1.992567e+20	33.300000	36.200000	
19.940000	19.944569	0.999771	0.000459	0.999541	0.000459	0.999541	1.994567e+20	33.300000	36.200000	
19.950000	19.954566	0.999771	0.000459	0.999541	0.000459	0.999541	1.996569e+20	33.300000	36.200000	
19.960000	19.964564	0.999771	0.000458	0.999542	0.000458	0.999542	1.998571e+20	33.300000	36.200000	
19.970000	19.974562	0.999772	0.000458	0.999542	0.000458	0.999542	2.000574e+20	33.300000	36.200000	
19.980000	19.984559	0.999772	0.000457	0.999543	0.000457	0.999543	2.002578e+20	33.300000	36.200000	
19.990000	19.994557	0.999772	0.000457	0.999543	0.000457	0.999543	2.004583e+20	33.300000	36.200000	
